SAO MARTINHO DA SERRA EMBRACE-06 <090> 1 Min. Reported data

 DD MM YYYY  HH MM   D(Deg)  H(nT)   Z(nT)   I(Deg)   F(nT)

 31 03 2015  00 00  -14.4344 17969.5 -13531.9 -36.9815 22494.8
 31 03 2015  00 01  -14.4341 17969.6 -13532.0 -36.9814 22494.9
 31 03 2015  00 02  -14.4339 17969.8 -13532.0 -36.9811 22495.0
 31 03 2015  00 03  -14.4337 17969.9 -13531.9 -36.9808 22495.1
 31 03 2015  00 04  -14.4335 17970.0 -13532.0 -36.9808 22495.2
 31 03 2015  00 05  -14.4334 17970.0 -13531.8 -36.9804 22495.2
 31 03 2015  00 06  -14.4333 17970.1 -13531.7 -36.9800 22495.2
 31 03 2015  00 07  -14.4332 17970.3 -13531.7 -36.9798 22495.3
 31 03 2015  00 08  -14.4333 17970.3 -13531.7 -36.9798 22495.3
 31 03 2015  00 09  -14.4332 17970.4 -13531.7 -36.9796 22495.4
 31 03 2015  00 10  -14.4335 17970.4 -13531.6 -36.9795 22495.3
 31 03 2015  00 11  -14.4335 17970.3 -13531.6 -36.9796 22495.3
 31 03 2015  00 12  -14.4335 17970.3 -13531.5 -36.9795 22495.2
 31 03 2015  00 13  -14.4335 17970.3 -13531.6 -36.9796 22495.2
 31 03 2015  00 14  -14.4334 17970.3 -13531.5 -36.9795 22495.2
 31 03 2015  00 15  -14.4331 17970.4 -13531.4 -36.9792 22495.2
 31 03 2015  00 16  -14.4329 17970.5 -13531.5 -36.9791 22495.3
 31 03 2015  00 17  -14.4328 17970.6 -13531.8 -36.9795 22495.5
 31 03 2015  00 18  -14.4326 17970.6 -13531.6 -36.9791 22495.5
 31 03 2015  00 19  -14.4324 17970.8 -13531.4 -36.9785 22495.5
 31 03 2015  00 20  -14.4324 17970.9 -13531.3 -36.9781 22495.5
 31 03 2015  00 21  -14.4322 17970.8 -13531.6 -36.9788 22495.6
 31 03 2015  00 22  -14.4319 17970.9 -13531.4 -36.9782 22495.6
 31 03 2015  00 23  -14.4316 17970.9 -13531.4 -36.9783 22495.6
 31 03 2015  00 24  -14.4315 17971.1 -13531.4 -36.9779 22495.7
 31 03 2015  00 25  -14.4312 17971.2 -13531.4 -36.9777 22495.9
 31 03 2015  00 26  -14.4310 17971.5 -13531.4 -36.9774 22496.0
 31 03 2015  00 27  -14.4308 17971.4 -13531.5 -36.9776 22496.1
 31 03 2015  00 28  -14.4306 17971.6 -13531.2 -36.9768 22496.0
 31 03 2015  00 29  -14.4305 17971.6 -13531.5 -36.9774 22496.2
 31 03 2015  00 30  -14.4304 17971.6 -13531.2 -36.9767 22496.0
 31 03 2015  00 31  -14.4304 17971.6 -13531.1 -36.9766 22496.0
 31 03 2015  00 32  -14.4303 17971.5 -13531.2 -36.9768 22496.0
 31 03 2015  00 33  -14.4303 17971.6 -13531.3 -36.9771 22496.1
 31 03 2015  00 34  -14.4303 17971.5 -13531.2 -36.9770 22496.0
 31 03 2015  00 35  -14.4303 17971.5 -13531.3 -36.9771 22496.0
 31 03 2015  00 36  -14.4302 17971.5 -13531.2 -36.9769 22496.0
 31 03 2015  00 37  -14.4301 17971.4 -13531.3 -36.9774 22496.0
 31 03 2015  00 38  -14.4300 17971.4 -13531.4 -36.9775 22496.0
 31 03 2015  00 39  -14.4299 17971.4 -13531.3 -36.9773 22495.9
 31 03 2015  00 40  -14.4298 17971.4 -13531.3 -36.9772 22495.9
 31 03 2015  00 41  -14.4297 17971.3 -13531.3 -36.9774 22495.9
 31 03 2015  00 42  -14.4295 17971.3 -13531.4 -36.9777 22495.9
 31 03 2015  00 43  -14.4294 17971.2 -13531.5 -36.9780 22495.9
 31 03 2015  00 44  -14.4293 17971.2 -13531.3 -36.9775 22495.8
 31 03 2015  00 45  -14.4290 17971.4 -13531.5 -36.9777 22496.0
 31 03 2015  00 46  -14.4288 17971.4 -13531.3 -36.9773 22496.0
 31 03 2015  00 47  -14.4287 17971.4 -13531.5 -36.9777 22496.1
 31 03 2015  00 48  -14.4287 17971.5 -13531.5 -36.9775 22496.2
 31 03 2015  00 49  -14.4284 17971.6 -13531.8 -36.9779 22496.4
 31 03 2015  00 50  -14.4281 17971.7 -13531.4 -36.9771 22496.3
 31 03 2015  00 51  -14.4279 17971.8 -13531.4 -36.9768 22496.3
 31 03 2015  00 52  -14.4277 17971.7 -13531.4 -36.9770 22496.3
 31 03 2015  00 53  -14.4275 17971.8 -13531.6 -36.9772 22496.5
 31 03 2015  00 54  -14.4274 17971.9 -13531.8 -36.9776 22496.6
 31 03 2015  00 55  -14.4275 17971.8 -13531.5 -36.9770 22496.4
 31 03 2015  00 56  -14.4275 17971.9 -13531.7 -36.9773 22496.5
 31 03 2015  00 57  -14.4276 17971.7 -13531.6 -36.9774 22496.4
 31 03 2015  00 58  -14.4276 17971.7 -13531.8 -36.9779 22496.4
 31 03 2015  00 59  -14.4276 17971.6 -13531.6 -36.9776 22496.3
 31 03 2015  01 00  -14.4275 17971.6 -13531.9 -36.9781 22496.4
 31 03 2015  01 01  -14.4274 17971.5 -13531.9 -36.9783 22496.4
 31 03 2015  01 02  -14.4274 17971.5 -13532.0 -36.9787 22496.5
 31 03 2015  01 03  -14.4273 17971.4 -13532.0 -36.9786 22496.4
 31 03 2015  01 04  -14.4272 17971.4 -13532.0 -36.9787 22496.3
 31 03 2015  01 05  -14.4271 17971.4 -13532.1 -36.9789 22496.5
 31 03 2015  01 06  -14.4270 17971.4 -13532.2 -36.9791 22496.5
 31 03 2015  01 07  -14.4268 17971.4 -13532.1 -36.9789 22496.4
 31 03 2015  01 08  -14.4265 17971.4 -13532.1 -36.9789 22496.5
 31 03 2015  01 09  -14.4263 17971.5 -13532.3 -36.9791 22496.6
 31 03 2015  01 10  -14.4263 17971.5 -13532.2 -36.9790 22496.6
 31 03 2015  01 11  -14.4262 17971.6 -13532.5 -36.9794 22496.8
 31 03 2015  01 12  -14.4263 17971.8 -13532.5 -36.9792 22497.0
 31 03 2015  01 13  -14.4263 17971.9 -13532.6 -36.9793 22497.1
 31 03 2015  01 14  -14.4262 17972.0 -13532.6 -36.9791 22497.2
 31 03 2015  01 15  -14.4262 17972.0 -13532.7 -36.9791 22497.3
 31 03 2015  01 16  -14.4260 17972.1 -13532.7 -36.9790 22497.4
 31 03 2015  01 17  -14.4259 17972.1 -13532.7 -36.9791 22497.4
 31 03 2015  01 18  -14.4256 17972.1 -13532.9 -36.9794 22497.5
 31 03 2015  01 19  -14.4255 17972.2 -13532.8 -36.9791 22497.5
 31 03 2015  01 20  -14.4255 17972.1 -13532.9 -36.9796 22497.4
 31 03 2015  01 21  -14.4255 17971.9 -13532.9 -36.9797 22497.3
 31 03 2015  01 22  -14.4255 17971.7 -13532.8 -36.9800 22497.1
 31 03 2015  01 23  -14.4256 17971.6 -13532.9 -36.9802 22497.0
 31 03 2015  01 24  -14.4255 17971.6 -13533.0 -36.9805 22497.1
 31 03 2015  01 25  -14.4254 17971.6 -13533.2 -36.9808 22497.2
 31 03 2015  01 26  -14.4252 17971.5 -13533.2 -36.9810 22497.2
 31 03 2015  01 27  -14.4250 17971.6 -13533.3 -36.9810 22497.3
 31 03 2015  01 28  -14.4249 17971.7 -13533.2 -36.9806 22497.3
 31 03 2015  01 29  -14.4249 17971.7 -13533.2 -36.9807 22497.4
 31 03 2015  01 30  -14.4247 17971.8 -13533.2 -36.9804 22497.4
 31 03 2015  01 31  -14.4245 17971.8 -13533.2 -36.9807 22497.4
 31 03 2015  01 32  -14.4243 17971.8 -13533.2 -36.9806 22497.4
 31 03 2015  01 33  -14.4243 17971.9 -13533.1 -36.9801 22497.4
 31 03 2015  01 34  -14.4241 17971.9 -13533.5 -36.9810 22497.7
 31 03 2015  01 35  -14.4240 17971.9 -13533.3 -36.9807 22497.6
 31 03 2015  01 36  -14.4240 17971.9 -13533.5 -36.9810 22497.6
 31 03 2015  01 37  -14.4237 17971.9 -13533.6 -36.9812 22497.7
 31 03 2015  01 38  -14.4238 17971.9 -13533.4 -36.9808 22497.6
 31 03 2015  01 39  -14.4238 17971.8 -13533.6 -36.9813 22497.6
 31 03 2015  01 40  -14.4239 17971.8 -13533.6 -36.9813 22497.6
 31 03 2015  01 41  -14.4239 17971.8 -13533.5 -36.9811 22497.6
 31 03 2015  01 42  -14.4238 17971.9 -13533.6 -36.9813 22497.7
 31 03 2015  01 43  -14.4239 17971.8 -13533.6 -36.9812 22497.6
 31 03 2015  01 44  -14.4238 17971.9 -13533.7 -36.9814 22497.8
 31 03 2015  01 45  -14.4239 17971.9 -13533.6 -36.9812 22497.7
 31 03 2015  01 46  -14.4239 17971.8 -13533.6 -36.9813 22497.7
 31 03 2015  01 47  -14.4240 17971.8 -13533.8 -36.9817 22497.8
 31 03 2015  01 48  -14.4241 17971.8 -13533.5 -36.9812 22497.6
 31 03 2015  01 49  -14.4241 17971.7 -13533.7 -36.9817 22497.6
 31 03 2015  01 50  -14.4241 17971.7 -13533.8 -36.9819 22497.6
 31 03 2015  01 51  -14.4242 17971.6 -13533.9 -36.9823 22497.6
 31 03 2015  01 52  -14.4244 17971.5 -13533.7 -36.9819 22497.5
 31 03 2015  01 53  -14.4245 17971.4 -13533.9 -36.9824 22497.5
 31 03 2015  01 54  -14.4246 17971.4 -13534.0 -36.9828 22497.6
 31 03 2015  01 55  -14.4247 17971.4 -13533.8 -36.9824 22497.5
 31 03 2015  01 56  -14.4247 17971.4 -13533.9 -36.9826 22497.5
 31 03 2015  01 57  -14.4248 17971.4 -13533.9 -36.9826 22497.5
 31 03 2015  01 58  -14.4248 17971.3 -13534.0 -36.9829 22497.5
 31 03 2015  01 59  -14.4249 17971.3 -13534.0 -36.9829 22497.5
 31 03 2015  02 00  -14.4249 17971.3 -13533.9 -36.9828 22497.4
 31 03 2015  02 01  -14.4251 17971.2 -13534.0 -36.9832 22497.4
 31 03 2015  02 02  -14.4252 17971.1 -13533.8 -36.9829 22497.2
 31 03 2015  02 03  -14.4254 17971.0 -13534.0 -36.9833 22497.2
 31 03 2015  02 04  -14.4254 17971.1 -13534.0 -36.9832 22497.3
 31 03 2015  02 05  -14.4253 17971.1 -13534.1 -36.9835 22497.4
 31 03 2015  02 06  -14.4253 17971.1 -13534.3 -36.9839 22497.5
 31 03 2015  02 07  -14.4255 17971.1 -13534.4 -36.9841 22497.6
 31 03 2015  02 08  -14.4257 17971.1 -13534.2 -36.9837 22497.5
 31 03 2015  02 09  -14.4258 17971.1 -13534.1 -36.9835 22497.4
 31 03 2015  02 10  -14.4259 17971.1 -13534.4 -36.9841 22497.6
 31 03 2015  02 11  -14.4259 17971.1 -13534.4 -36.9841 22497.6
 31 03 2015  02 12  -14.4260 17971.1 -13534.3 -36.9839 22497.5
 31 03 2015  02 13  -14.4260 17971.2 -13534.4 -36.9839 22497.6
 31 03 2015  02 14  -14.4259 17971.3 -13534.3 -36.9837 22497.6
 31 03 2015  02 15  -14.4257 17971.4 -13534.4 -36.9836 22497.8
 31 03 2015  02 16  -14.4258 17971.4 -13534.6 -36.9840 22497.9
 31 03 2015  02 17  -14.4259 17971.4 -13534.5 -36.9838 22497.9
 31 03 2015  02 18  -14.4259 17971.6 -13534.4 -36.9834 22497.9
 31 03 2015  02 19  -14.4259 17971.7 -13534.5 -36.9834 22498.1
 31 03 2015  02 20  -14.4260 17971.6 -13534.4 -36.9831 22498.0
 31 03 2015  02 21  -14.4262 17971.6 -13534.6 -36.9838 22498.1
 31 03 2015  02 22  -14.4262 17971.6 -13534.7 -36.9839 22498.1
 31 03 2015  02 23  -14.4263 17971.5 -13534.6 -36.9838 22498.0
 31 03 2015  02 24  -14.4264 17971.5 -13534.5 -36.9836 22497.9
 31 03 2015  02 25  -14.4265 17971.4 -13534.6 -36.9840 22498.0
 31 03 2015  02 26  -14.4265 17971.4 -13534.5 -36.9839 22497.9
 31 03 2015  02 27  -14.4264 17971.4 -13534.6 -36.9841 22497.9
 31 03 2015  02 28  -14.4264 17971.3 -13534.7 -36.9844 22497.9
 31 03 2015  02 29  -14.4264 17971.2 -13534.8 -36.9847 22497.9
 31 03 2015  02 30  -14.4265 17971.2 -13534.8 -36.9847 22497.9
 31 03 2015  02 31  -14.4266 17971.2 -13534.7 -36.9845 22497.8
 31 03 2015  02 32  -14.4268 17971.2 -13534.4 -36.9840 22497.7
 31 03 2015  02 33  -14.4269 17971.3 -13534.4 -36.9839 22497.7
 31 03 2015  02 34  -14.4268 17971.3 -13534.8 -36.9847 22497.9
 31 03 2015  02 35  -14.4269 17971.3 -13534.6 -36.9842 22497.8
 31 03 2015  02 36  -14.4270 17971.2 -13534.6 -36.9843 22497.8
 31 03 2015  02 37  -14.4271 17971.3 -13534.7 -36.9844 22497.9
 31 03 2015  02 38  -14.4272 17971.2 -13534.6 -36.9843 22497.8
 31 03 2015  02 39  -14.4273 17971.2 -13534.9 -36.9849 22498.0
 31 03 2015  02 40  -14.4275 17971.2 -13534.6 -36.9843 22497.8
 31 03 2015  02 41  -14.4274 17971.3 -13534.6 -36.9842 22497.9
 31 03 2015  02 42  -14.4274 17971.4 -13534.5 -36.9838 22497.9
 31 03 2015  02 43  -14.4272 17971.6 -13534.7 -36.9840 22498.1
 31 03 2015  02 44  -14.4271 17971.7 -13534.7 -36.9837 22498.2
 31 03 2015  02 45  -14.4269 17971.8 -13534.5 -36.9831 22498.2
 31 03 2015  02 46  -14.4268 17971.9 -13534.9 -36.9838 22498.5
 31 03 2015  02 47  -14.4269 17971.9 -13535.1 -36.9842 22498.6
 31 03 2015  02 48  -14.4271 17971.9 -13534.8 -36.9836 22498.5
 31 03 2015  02 49  -14.4271 17972.0 -13534.8 -36.9836 22498.5
 31 03 2015  02 50  -14.4272 17972.0 -13534.7 -36.9832 22498.5
 31 03 2015  02 51  -14.4273 17972.0 -13534.7 -36.9832 22498.4
 31 03 2015  02 52  -14.4273 17972.0 -13534.7 -36.9833 22498.5
 31 03 2015  02 53  -14.4273 17972.0 -13534.4 -36.9827 22498.3
 31 03 2015  02 54  -14.4275 17971.9 -13534.6 -36.9831 22498.3
 31 03 2015  02 55  -14.4277 17971.8 -13534.9 -36.9839 22498.4
 31 03 2015  02 56  -14.4279 17971.7 -13534.7 -36.9839 22498.2
 31 03 2015  02 57  -14.4281 17971.4 -13534.5 -36.9837 22497.9
 31 03 2015  02 58  -14.4284 17971.3 -13534.7 -36.9844 22497.9
 31 03 2015  02 59  -14.4285 17971.1 -13534.8 -36.9848 22497.8
 31 03 2015  03 00  -14.4288 17970.9 -13534.7 -36.9850 22497.5
 31 03 2015  03 01  -14.4292 17970.6 -13534.5 -36.9851 22497.3
 31 03 2015  03 02  -14.4296 17970.4 -13534.5 -36.9854 22497.1
 31 03 2015  03 03  -14.4298 17970.3 -13534.8 -36.9860 22497.1
 31 03 2015  03 04  -14.4302 17970.1 -13534.8 -36.9864 22497.0
 31 03 2015  03 05  -14.4303 17970.0 -13534.7 -36.9864 22496.9
 31 03 2015  03 06  -14.4304 17970.0 -13534.9 -36.9867 22497.0
 31 03 2015  03 07  -14.4305 17970.1 -13535.0 -36.9869 22497.1
 31 03 2015  03 08  -14.4306 17970.1 -13535.0 -36.9869 22497.2
 31 03 2015  03 09  -14.4306 17970.1 -13535.0 -36.9869 22497.2
 31 03 2015  03 10  -14.4306 17970.2 -13535.0 -36.9867 22497.3
 31 03 2015  03 11  -14.4307 17970.3 -13534.8 -36.9861 22497.2
 31 03 2015  03 12  -14.4307 17970.5 -13535.0 -36.9863 22497.5
 31 03 2015  03 13  -14.4307 17970.6 -13535.1 -36.9862 22497.6
 31 03 2015  03 14  -14.4310 17970.6 -13535.0 -36.9862 22497.5
 31 03 2015  03 15  -14.4312 17970.6 -13535.0 -36.9861 22497.5
 31 03 2015  03 16  -14.4314 17970.6 -13535.3 -36.9867 22497.7
 31 03 2015  03 17  -14.4318 17970.6 -13534.8 -36.9857 22497.4
 31 03 2015  03 18  -14.4317 17970.8 -13534.8 -36.9854 22497.6
 31 03 2015  03 19  -14.4316 17970.7 -13534.7 -36.9854 22497.4
 31 03 2015  03 20  -14.4314 17970.8 -13535.3 -36.9863 22497.9
 31 03 2015  03 21  -14.4311 17971.2 -13535.3 -36.9857 22498.1
 31 03 2015  03 22  -14.4313 17970.9 -13534.9 -36.9854 22497.8
 31 03 2015  03 23  -14.4312 17971.1 -13535.2 -36.9856 22498.0
 31 03 2015  03 24  -14.4315 17971.0 -13535.1 -36.9856 22497.9
 31 03 2015  03 25  -14.4313 17971.0 -13535.2 -36.9857 22498.0
 31 03 2015  03 26  -14.4313 17970.8 -13535.0 -36.9856 22497.7
 31 03 2015  03 27  -14.4311 17970.9 -13535.0 -36.9855 22497.8
 31 03 2015  03 28  -14.4312 17970.9 -13535.0 -36.9855 22497.8
 31 03 2015  03 29  -14.4314 17970.8 -13534.9 -36.9854 22497.6
 31 03 2015  03 30  -14.4314 17970.9 -13535.0 -36.9856 22497.7
 31 03 2015  03 31  -14.4315 17970.9 -13534.9 -36.9854 22497.7
 31 03 2015  03 32  -14.4313 17971.0 -13535.2 -36.9858 22497.9
 31 03 2015  03 33  -14.4312 17971.0 -13535.1 -36.9856 22497.9
 31 03 2015  03 34  -14.4314 17971.0 -13534.8 -36.9852 22497.7
 31 03 2015  03 35  -14.4316 17971.1 -13534.9 -36.9851 22497.8
 31 03 2015  03 36  -14.4315 17971.0 -13535.1 -36.9857 22497.9
 31 03 2015  03 37  -14.4314 17971.1 -13535.1 -36.9854 22498.0
 31 03 2015  03 38  -14.4313 17971.0 -13535.2 -36.9858 22498.0
 31 03 2015  03 39  -14.4313 17971.0 -13534.9 -36.9851 22497.8
 31 03 2015  03 40  -14.4310 17971.1 -13535.0 -36.9853 22497.9
 31 03 2015  03 41  -14.4309 17971.0 -13535.1 -36.9856 22497.9
 31 03 2015  03 42  -14.4309 17971.0 -13535.0 -36.9854 22497.9
 31 03 2015  03 43  -14.4310 17971.0 -13535.2 -36.9859 22497.9
 31 03 2015  03 44  -14.4312 17970.9 -13534.9 -36.9855 22497.7
 31 03 2015  03 45  -14.4311 17970.8 -13535.1 -36.9860 22497.8
 31 03 2015  03 46  -14.4310 17970.8 -13535.3 -36.9863 22497.8
 31 03 2015  03 47  -14.4310 17970.7 -13535.0 -36.9860 22497.6
 31 03 2015  03 48  -14.4310 17970.6 -13535.0 -36.9859 22497.5
 31 03 2015  03 49  -14.4311 17970.6 -13535.0 -36.9862 22497.5
 31 03 2015  03 50  -14.4313 17970.6 -13534.9 -36.9859 22497.5
 31 03 2015  03 51  -14.4314 17970.5 -13535.4 -36.9870 22497.7
 31 03 2015  03 52  -14.4317 17970.4 -13534.9 -36.9861 22497.3
 31 03 2015  03 53  -14.4321 17970.4 -13534.9 -36.9863 22497.3
 31 03 2015  03 54  -14.4320 17970.3 -13534.8 -36.9862 22497.2
 31 03 2015  03 55  -14.4319 17970.2 -13535.3 -36.9874 22497.4
 31 03 2015  03 56  -14.4321 17970.2 -13535.1 -36.9868 22497.2
 31 03 2015  03 57  -14.4321 17970.3 -13535.2 -36.9870 22497.4
 31 03 2015  03 58  -14.4325 17970.0 -13535.0 -36.9871 22497.0
 31 03 2015  03 59  -14.4326 17970.3 -13535.1 -36.9868 22497.3
 31 03 2015  04 00  -14.4328 17970.1 -13534.9 -36.9867 22497.1
 31 03 2015  04 01  -14.4329 17970.2 -13535.4 -36.9876 22497.4
 31 03 2015  04 02  -14.4330 17970.1 -13535.4 -36.9875 22497.4
 31 03 2015  04 03  -14.4329 17970.2 -13535.1 -36.9869 22497.2
 31 03 2015  04 04  -14.4333 17970.1 -13535.3 -36.9873 22497.3
 31 03 2015  04 05  -14.4340 17970.5 -13535.1 -36.9865 22497.5
 31 03 2015  04 06  -14.4340 17970.7 -13535.1 -36.9861 22497.6
 31 03 2015  04 07  -14.4341 17970.3 -13535.0 -36.9864 22497.3
 31 03 2015  04 08  -14.4340 17971.2 -13535.3 -36.9859 22498.2
 31 03 2015  04 09  -14.4333 17971.9 -13535.3 -36.9848 22498.8
 31 03 2015  04 10  -14.4343 17971.1 -13535.0 -36.9854 22498.0
 31 03 2015  04 11  -14.4333 17972.5 -13535.3 -36.9837 22499.3
 31 03 2015  04 12  -14.4333 17972.3 -13535.3 -36.9841 22499.1
 31 03 2015  04 13  -14.4337 17972.7 -13535.5 -36.9838 22499.5
 31 03 2015  04 14  -14.4331 17973.1 -13535.1 -36.9823 22499.6
 31 03 2015  04 15  -14.4334 17973.2 -13535.2 -36.9825 22499.7
 31 03 2015  04 16  -14.4334 17973.3 -13535.1 -36.9821 22499.8
 31 03 2015  04 17  -14.4335 17973.4 -13535.0 -36.9818 22499.7
 31 03 2015  04 18  -14.4334 17973.4 -13535.2 -36.9822 22499.9
 31 03 2015  04 19  -14.4336 17973.7 -13535.2 -36.9816 22500.1
 31 03 2015  04 20  -14.4335 17973.8 -13534.9 -36.9810 22500.1
 31 03 2015  04 21  -14.4339 17973.6 -13535.0 -36.9814 22499.9
 31 03 2015  04 22  -14.4339 17973.9 -13535.1 -36.9811 22500.2
 31 03 2015  04 23  -14.4346 17973.7 -13534.9 -36.9811 22499.9
 31 03 2015  04 24  -14.4350 17974.0 -13535.0 -36.9809 22500.3
 31 03 2015  04 25  -14.4354 17973.9 -13534.8 -36.9805 22500.0
 31 03 2015  04 26  -14.4361 17973.8 -13534.8 -36.9807 22500.0
 31 03 2015  04 27  -14.4364 17973.9 -13535.0 -36.9810 22500.1
 31 03 2015  04 28  -14.4369 17973.9 -13535.0 -36.9810 22500.1
 31 03 2015  04 29  -14.4372 17973.9 -13534.8 -36.9806 22500.0
 31 03 2015  04 30  -14.4372 17974.1 -13534.8 -36.9803 22500.2
 31 03 2015  04 31  -14.4374 17973.9 -13535.2 -36.9814 22500.3
 31 03 2015  04 32  -14.4381 17973.9 -13534.8 -36.9806 22500.0
 31 03 2015  04 33  -14.4383 17974.1 -13535.0 -36.9808 22500.4
 31 03 2015  04 34  -14.4389 17973.9 -13534.9 -36.9807 22500.1
 31 03 2015  04 35  -14.4393 17974.1 -13534.8 -36.9802 22500.2
 31 03 2015  04 36  -14.4393 17974.1 -13534.7 -36.9802 22500.1
 31 03 2015  04 37  -14.4394 17974.1 -13534.9 -36.9805 22500.3
 31 03 2015  04 38  -14.4393 17974.1 -13534.6 -36.9799 22500.1
 31 03 2015  04 39  -14.4396 17974.0 -13534.5 -36.9798 22500.0
 31 03 2015  04 40  -14.4398 17974.1 -13534.6 -36.9799 22500.0
 31 03 2015  04 41  -14.4401 17973.9 -13534.8 -36.9807 22500.0
 31 03 2015  04 42  -14.4406 17973.9 -13534.8 -36.9807 22500.0
 31 03 2015  04 43  -14.4407 17973.9 -13535.0 -36.9808 22500.2
 31 03 2015  04 44  -14.4407 17973.8 -13534.8 -36.9807 22500.0
 31 03 2015  04 45  -14.4408 17973.8 -13534.8 -36.9808 22499.9
 31 03 2015  04 46  -14.4408 17973.7 -13534.9 -36.9810 22500.0
 31 03 2015  04 47  -14.4409 17973.8 -13535.0 -36.9810 22500.1
 31 03 2015  04 48  -14.4408 17973.7 -13535.0 -36.9814 22500.0
 31 03 2015  04 49  -14.4409 17973.6 -13534.8 -36.9811 22499.8
 31 03 2015  04 50  -14.4413 17973.4 -13534.9 -36.9815 22499.7
 31 03 2015  04 51  -14.4414 17973.3 -13534.7 -36.9813 22499.5
 31 03 2015  04 52  -14.4417 17973.4 -13534.8 -36.9814 22499.6
 31 03 2015  04 53  -14.4417 17973.5 -13534.7 -36.9810 22499.7
 31 03 2015  04 54  -14.4417 17973.5 -13534.7 -36.9810 22499.6
 31 03 2015  04 55  -14.4416 17973.5 -13534.7 -36.9810 22499.7
 31 03 2015  04 56  -14.4415 17973.5 -13534.7 -36.9810 22499.7
 31 03 2015  04 57  -14.4411 17973.4 -13535.0 -36.9819 22499.8
 31 03 2015  04 58  -14.4410 17973.5 -13535.3 -36.9822 22500.0
 31 03 2015  04 59  -14.4409 17973.5 -13535.0 -36.9817 22499.9
 31 03 2015  05 00  -14.4410 17973.6 -13535.0 -36.9814 22499.9
 31 03 2015  05 01  -14.4408 17973.5 -13535.0 -36.9815 22499.8
 31 03 2015  05 02  -14.4408 17973.5 -13535.0 -36.9814 22499.9
 31 03 2015  05 03  -14.4410 17973.6 -13534.9 -36.9812 22499.8
 31 03 2015  05 04  -14.4411 17973.6 -13535.0 -36.9814 22499.9
 31 03 2015  05 05  -14.4411 17973.5 -13535.1 -36.9817 22499.9
 31 03 2015  05 06  -14.4410 17973.4 -13535.1 -36.9820 22499.9
 31 03 2015  05 07  -14.4412 17973.4 -13534.9 -36.9816 22499.7
 31 03 2015  05 08  -14.4414 17973.3 -13534.9 -36.9816 22499.6
 31 03 2015  05 09  -14.4416 17973.3 -13535.1 -36.9820 22499.7
 31 03 2015  05 10  -14.4416 17973.4 -13535.2 -36.9821 22499.9
 31 03 2015  05 11  -14.4415 17973.4 -13535.2 -36.9822 22499.9
 31 03 2015  05 12  -14.4414 17973.4 -13535.4 -36.9825 22500.0
 31 03 2015  05 13  -14.4413 17973.4 -13535.5 -36.9827 22500.0
 31 03 2015  05 14  -14.4410 17973.5 -13535.4 -36.9825 22500.1
 31 03 2015  05 15  -14.4407 17973.6 -13535.1 -36.9817 22500.0
 31 03 2015  05 16  -14.4404 17973.8 -13535.5 -36.9822 22500.4
 31 03 2015  05 17  -14.4402 17974.0 -13535.3 -36.9814 22500.4
 31 03 2015  05 18  -14.4400 17974.1 -13535.7 -36.9821 22500.7
 31 03 2015  05 19  -14.4399 17974.1 -13535.4 -36.9815 22500.6
 31 03 2015  05 20  -14.4398 17974.0 -13535.2 -36.9812 22500.4
 31 03 2015  05 21  -14.4395 17973.9 -13535.0 -36.9811 22500.2
 31 03 2015  05 22  -14.4393 17973.7 -13535.1 -36.9816 22500.1
 31 03 2015  05 23  -14.4391 17973.4 -13535.2 -36.9820 22499.9
 31 03 2015  05 24  -14.4390 17973.2 -13535.1 -36.9823 22499.6
 31 03 2015  05 25  -14.4388 17973.0 -13535.1 -36.9826 22499.5
 31 03 2015  05 26  -14.4387 17972.8 -13535.1 -36.9828 22499.4
 31 03 2015  05 27  -14.4388 17972.6 -13535.0 -36.9829 22499.1
 31 03 2015  05 28  -14.4387 17972.7 -13535.5 -36.9838 22499.5
 31 03 2015  05 29  -14.4387 17972.7 -13535.3 -36.9834 22499.4
 31 03 2015  05 30  -14.4386 17972.9 -13535.4 -36.9833 22499.6
 31 03 2015  05 31  -14.4386 17973.1 -13535.3 -36.9829 22499.7
 31 03 2015  05 32  -14.4386 17973.2 -13535.4 -36.9829 22499.9
 31 03 2015  05 33  -14.4386 17973.3 -13535.3 -36.9825 22499.9
 31 03 2015  05 34  -14.4387 17973.4 -13535.5 -36.9828 22500.1
 31 03 2015  05 35  -14.4385 17973.5 -13535.4 -36.9825 22500.1
 31 03 2015  05 36  -14.4385 17973.6 -13535.4 -36.9822 22500.2
 31 03 2015  05 37  -14.4382 17973.7 -13535.5 -36.9823 22500.3
 31 03 2015  05 38  -14.4382 17973.7 -13535.4 -36.9820 22500.3
 31 03 2015  05 39  -14.4382 17973.7 -13535.3 -36.9818 22500.2
 31 03 2015  05 40  -14.4382 17973.7 -13535.2 -36.9819 22500.1
 31 03 2015  05 41  -14.4383 17973.6 -13535.1 -36.9817 22500.0
 31 03 2015  05 42  -14.4384 17973.5 -13535.0 -36.9816 22499.9
 31 03 2015  05 43  -14.4385 17973.4 -13535.2 -36.9822 22499.9
 31 03 2015  05 44  -14.4386 17973.3 -13535.3 -36.9826 22499.9
 31 03 2015  05 45  -14.4387 17973.1 -13535.4 -36.9830 22499.7
 31 03 2015  05 46  -14.4390 17973.0 -13535.4 -36.9831 22499.6
 31 03 2015  05 47  -14.4394 17972.7 -13535.3 -36.9836 22499.4
 31 03 2015  05 48  -14.4398 17972.5 -13535.1 -36.9833 22499.1
 31 03 2015  05 49  -14.4402 17972.4 -13535.1 -36.9834 22499.0
 31 03 2015  05 50  -14.4404 17972.5 -13535.5 -36.9842 22499.3
 31 03 2015  05 51  -14.4407 17972.6 -13535.3 -36.9837 22499.3
 31 03 2015  05 52  -14.4407 17972.7 -13535.4 -36.9837 22499.4
 31 03 2015  05 53  -14.4409 17972.6 -13535.3 -36.9836 22499.3
 31 03 2015  05 54  -14.4410 17972.6 -13535.1 -36.9832 22499.2
 31 03 2015  05 55  -14.4411 17972.8 -13535.3 -36.9834 22499.5
 31 03 2015  05 56  -14.4412 17972.7 -13535.2 -36.9833 22499.3
 31 03 2015  05 57  -14.4412 17972.6 -13535.5 -36.9840 22499.4
 31 03 2015  05 58  -14.4414 17972.5 -13535.1 -36.9834 22499.1
 31 03 2015  05 59  -14.4413 17972.5 -13535.4 -36.9841 22499.3
 31 03 2015  06 00  -14.4413 17972.4 -13535.4 -36.9841 22499.2
 31 03 2015  06 01  -14.4415 17972.4 -13535.2 -36.9838 22499.1
 31 03 2015  06 02  -14.4415 17972.5 -13535.3 -36.9838 22499.3
 31 03 2015  06 03  -14.4420 17972.5 -13535.4 -36.9839 22499.3
 31 03 2015  06 04  -14.4421 17972.5 -13535.2 -36.9836 22499.2
 31 03 2015  06 05  -14.4418 17972.5 -13535.2 -36.9836 22499.2
 31 03 2015  06 06  -14.4416 17972.4 -13535.2 -36.9837 22499.0
 31 03 2015  06 07  -14.4414 17972.3 -13535.2 -36.9838 22499.0
 31 03 2015  06 08  -14.4410 17972.3 -13535.1 -36.9837 22498.9
 31 03 2015  06 09  -14.4407 17972.4 -13535.3 -36.9838 22499.1
 31 03 2015  06 10  -14.4405 17972.3 -13535.4 -36.9844 22499.1
 31 03 2015  06 11  -14.4403 17972.2 -13535.3 -36.9843 22498.9
 31 03 2015  06 12  -14.4404 17972.0 -13535.2 -36.9843 22498.8
 31 03 2015  06 13  -14.4407 17971.9 -13535.2 -36.9844 22498.7
 31 03 2015  06 14  -14.4411 17971.9 -13535.3 -36.9847 22498.8
 31 03 2015  06 15  -14.4415 17971.9 -13535.3 -36.9847 22498.8
 31 03 2015  06 16  -14.4417 17972.0 -13535.2 -36.9843 22498.8
 31 03 2015  06 17  -14.4418 17972.0 -13535.2 -36.9842 22498.8
 31 03 2015  06 18  -14.4416 17972.0 -13535.2 -36.9843 22498.8
 31 03 2015  06 19  -14.4418 17972.1 -13535.3 -36.9843 22498.9
 31 03 2015  06 20  -14.4419 17972.2 -13535.4 -36.9845 22499.0
 31 03 2015  06 21  -14.4420 17972.2 -13535.2 -36.9839 22498.9
 31 03 2015  06 22  -14.4420 17972.3 -13535.3 -36.9841 22499.1
 31 03 2015  06 23  -14.4419 17972.5 -13535.4 -36.9840 22499.2
 31 03 2015  06 24  -14.4419 17972.6 -13535.2 -36.9835 22499.3
 31 03 2015  06 25  -14.4417 17972.8 -13535.5 -36.9838 22499.6
 31 03 2015  06 26  -14.4413 17972.9 -13535.3 -36.9832 22499.5
 31 03 2015  06 27  -14.4410 17973.0 -13535.4 -36.9832 22499.7
 31 03 2015  06 28  -14.4404 17973.2 -13535.2 -36.9826 22499.7
 31 03 2015  06 29  -14.4402 17973.0 -13535.2 -36.9827 22499.6
 31 03 2015  06 30  -14.4398 17973.0 -13535.1 -36.9827 22499.5
 31 03 2015  06 31  -14.4397 17972.7 -13535.2 -36.9832 22499.4
 31 03 2015  06 32  -14.4396 17972.7 -13535.2 -36.9831 22499.3
 31 03 2015  06 33  -14.4398 17972.7 -13535.1 -36.9830 22499.3
 31 03 2015  06 34  -14.4399 17972.7 -13535.1 -36.9831 22499.3
 31 03 2015  06 35  -14.4401 17972.7 -13535.2 -36.9831 22499.4
 31 03 2015  06 36  -14.4402 17972.8 -13535.0 -36.9825 22499.3
 31 03 2015  06 37  -14.4405 17972.8 -13535.2 -36.9830 22499.4
 31 03 2015  06 38  -14.4406 17972.8 -13535.0 -36.9826 22499.3
 31 03 2015  06 39  -14.4410 17972.8 -13535.2 -36.9831 22499.4
 31 03 2015  06 40  -14.4410 17973.0 -13535.3 -36.9830 22499.6
 31 03 2015  06 41  -14.4415 17972.8 -13535.0 -36.9826 22499.3
 31 03 2015  06 42  -14.4417 17972.8 -13535.1 -36.9828 22499.3
 31 03 2015  06 43  -14.4416 17972.8 -13535.2 -36.9831 22499.4
 31 03 2015  06 44  -14.4419 17972.7 -13534.9 -36.9826 22499.2
 31 03 2015  06 45  -14.4421 17972.8 -13535.5 -36.9836 22499.6
 31 03 2015  06 46  -14.4424 17973.0 -13534.9 -36.9822 22499.3
 31 03 2015  06 47  -14.4423 17973.0 -13535.4 -36.9830 22499.7
 31 03 2015  06 48  -14.4426 17973.1 -13535.3 -36.9827 22499.7
 31 03 2015  06 49  -14.4426 17973.2 -13534.9 -36.9819 22499.5
 31 03 2015  06 50  -14.4426 17973.0 -13534.9 -36.9822 22499.4
 31 03 2015  06 51  -14.4424 17973.2 -13535.1 -36.9822 22499.7
 31 03 2015  06 52  -14.4419 17973.4 -13535.1 -36.9819 22499.8
 31 03 2015  06 53  -14.4419 17973.6 -13534.5 -36.9805 22499.6
 31 03 2015  06 54  -14.4417 17973.8 -13535.1 -36.9815 22500.1
 31 03 2015  06 55  -14.4411 17973.9 -13535.0 -36.9811 22500.1
 31 03 2015  06 56  -14.4406 17974.0 -13534.8 -36.9804 22500.1
 31 03 2015  06 57  -14.4401 17974.1 -13534.8 -36.9803 22500.2
 31 03 2015  06 58  -14.4394 17974.2 -13535.0 -36.9805 22500.4
 31 03 2015  06 59  -14.4390 17974.1 -13534.8 -36.9803 22500.2
 31 03 2015  07 00  -14.4385 17974.2 -13535.1 -36.9807 22500.4
 31 03 2015  07 01  -14.4383 17974.2 -13534.8 -36.9802 22500.2
 31 03 2015  07 02  -14.4379 17974.2 -13535.0 -36.9805 22500.4
 31 03 2015  07 03  -14.4375 17974.2 -13534.7 -36.9800 22500.2
 31 03 2015  07 04  -14.4373 17974.3 -13534.7 -36.9799 22500.3
 31 03 2015  07 05  -14.4372 17974.1 -13534.9 -36.9804 22500.3
 31 03 2015  07 06  -14.4371 17974.2 -13534.8 -36.9801 22500.3
 31 03 2015  07 07  -14.4371 17974.3 -13534.7 -36.9798 22500.3
 31 03 2015  07 08  -14.4369 17974.4 -13534.9 -36.9801 22500.5
 31 03 2015  07 09  -14.4367 17974.3 -13534.8 -36.9799 22500.4
 31 03 2015  07 10  -14.4369 17974.4 -13534.6 -36.9795 22500.3
 31 03 2015  07 11  -14.4369 17974.4 -13534.7 -36.9796 22500.4
 31 03 2015  07 12  -14.4370 17974.3 -13534.6 -36.9796 22500.3
 31 03 2015  07 13  -14.4370 17974.4 -13534.9 -36.9800 22500.5
 31 03 2015  07 14  -14.4371 17974.5 -13534.6 -36.9793 22500.4
 31 03 2015  07 15  -14.4370 17974.6 -13535.0 -36.9798 22500.7
 31 03 2015  07 16  -14.4373 17974.6 -13534.4 -36.9787 22500.3
 31 03 2015  07 17  -14.4373 17974.6 -13534.9 -36.9797 22500.6
 31 03 2015  07 18  -14.4373 17974.5 -13534.5 -36.9790 22500.3
 31 03 2015  07 19  -14.4372 17974.4 -13534.2 -36.9785 22500.1
 31 03 2015  07 20  -14.4372 17974.4 -13534.3 -36.9789 22500.2
 31 03 2015  07 21  -14.4373 17974.4 -13534.5 -36.9792 22500.2
 31 03 2015  07 22  -14.4375 17974.3 -13534.2 -36.9788 22500.0
 31 03 2015  07 23  -14.4374 17974.3 -13534.3 -36.9790 22500.0
 31 03 2015  07 24  -14.4374 17974.2 -13534.3 -36.9791 22500.0
 31 03 2015  07 25  -14.4374 17974.2 -13534.5 -36.9794 22500.1
 31 03 2015  07 26  -14.4374 17974.2 -13534.9 -36.9803 22500.4
 31 03 2015  07 27  -14.4376 17974.2 -13534.6 -36.9798 22500.2
 31 03 2015  07 28  -14.4377 17974.2 -13534.6 -36.9796 22500.2
 31 03 2015  07 29  -14.4379 17974.3 -13534.6 -36.9797 22500.2
 31 03 2015  07 30  -14.4380 17974.3 -13534.9 -36.9801 22500.4
 31 03 2015  07 31  -14.4381 17974.3 -13534.9 -36.9800 22500.4
 31 03 2015  07 32  -14.4384 17974.3 -13534.8 -36.9800 22500.4
 31 03 2015  07 33  -14.4387 17974.3 -13534.9 -36.9802 22500.4
 31 03 2015  07 34  -14.4391 17974.3 -13534.6 -36.9796 22500.3
 31 03 2015  07 35  -14.4394 17974.4 -13534.7 -36.9796 22500.4
 31 03 2015  07 36  -14.4396 17974.5 -13534.9 -36.9799 22500.5
 31 03 2015  07 37  -14.4393 17974.5 -13534.9 -36.9799 22500.5
 31 03 2015  07 38  -14.4391 17974.5 -13534.6 -36.9792 22500.3
 31 03 2015  07 39  -14.4388 17974.4 -13534.3 -36.9788 22500.2
 31 03 2015  07 40  -14.4383 17974.4 -13534.8 -36.9798 22500.5
 31 03 2015  07 41  -14.4380 17974.5 -13534.5 -36.9791 22500.3
 31 03 2015  07 42  -14.4376 17974.5 -13534.7 -36.9794 22500.4
 31 03 2015  07 43  -14.4370 17974.5 -13534.7 -36.9794 22500.5
 31 03 2015  07 44  -14.4367 17974.6 -13534.3 -36.9785 22500.3
 31 03 2015  07 45  -14.4363 17974.6 -13534.4 -36.9786 22500.4
 31 03 2015  07 46  -14.4359 17974.5 -13534.3 -36.9787 22500.2
 31 03 2015  07 47  -14.4358 17974.5 -13534.3 -36.9788 22500.2
 31 03 2015  07 48  -14.4355 17974.4 -13534.3 -36.9789 22500.1
 31 03 2015  07 49  -14.4353 17974.4 -13534.3 -36.9788 22500.1
 31 03 2015  07 50  -14.4348 17974.5 -13534.6 -36.9793 22500.4
 31 03 2015  07 51  -14.4345 17974.6 -13534.4 -36.9787 22500.4
 31 03 2015  07 52  -14.4341 17974.8 -13534.6 -36.9789 22500.6
 31 03 2015  07 53  -14.4336 17974.9 -13534.5 -36.9785 22500.7
 31 03 2015  07 54  -14.4332 17975.0 -13534.6 -36.9785 22500.8
 31 03 2015  07 55  -14.4328 17975.2 -13534.5 -36.9779 22500.9
 31 03 2015  07 56  -14.4329 17975.3 -13534.4 -36.9777 22500.9
 31 03 2015  07 57  -14.4327 17975.5 -13534.5 -36.9775 22501.2
 31 03 2015  07 58  -14.4325 17975.7 -13534.7 -36.9775 22501.4
 31 03 2015  07 59  -14.4322 17975.9 -13534.7 -36.9773 22501.6
 31 03 2015  08 00  -14.4319 17976.1 -13534.4 -36.9765 22501.5
 31 03 2015  08 01  -14.4316 17976.2 -13534.5 -36.9765 22501.7
 31 03 2015  08 02  -14.4314 17976.2 -13534.7 -36.9768 22501.8
 31 03 2015  08 03  -14.4313 17976.3 -13534.5 -36.9763 22501.8
 31 03 2015  08 04  -14.4313 17976.3 -13534.6 -36.9765 22501.8
 31 03 2015  08 05  -14.4311 17976.4 -13534.5 -36.9762 22501.8
 31 03 2015  08 06  -14.4313 17976.4 -13534.6 -36.9764 22501.9
 31 03 2015  08 07  -14.4314 17976.3 -13534.2 -36.9758 22501.6
 31 03 2015  08 08  -14.4316 17976.2 -13534.5 -36.9765 22501.7
 31 03 2015  08 09  -14.4318 17976.2 -13534.6 -36.9767 22501.8
 31 03 2015  08 10  -14.4322 17976.2 -13534.5 -36.9766 22501.7
 31 03 2015  08 11  -14.4323 17976.1 -13534.3 -36.9763 22501.5
 31 03 2015  08 12  -14.4323 17976.2 -13534.6 -36.9766 22501.7
 31 03 2015  08 13  -14.4319 17976.3 -13534.5 -36.9763 22501.8
 31 03 2015  08 14  -14.4314 17976.3 -13534.7 -36.9767 22501.9
 31 03 2015  08 15  -14.4310 17976.4 -13534.8 -36.9767 22502.0
 31 03 2015  08 16  -14.4308 17976.5 -13534.7 -36.9765 22502.1
 31 03 2015  08 17  -14.4309 17976.5 -13534.4 -36.9759 22501.9
 31 03 2015  08 18  -14.4309 17976.7 -13534.8 -36.9764 22502.3
 31 03 2015  08 19  -14.4311 17976.7 -13534.9 -36.9765 22502.3
 31 03 2015  08 20  -14.4313 17976.7 -13534.7 -36.9760 22502.2
 31 03 2015  08 21  -14.4313 17976.8 -13534.6 -36.9758 22502.3
 31 03 2015  08 22  -14.4315 17976.9 -13534.6 -36.9756 22502.3
 31 03 2015  08 23  -14.4314 17977.1 -13534.7 -36.9755 22502.5
 31 03 2015  08 24  -14.4313 17977.1 -13534.7 -36.9754 22502.5
 31 03 2015  08 25  -14.4314 17977.1 -13534.7 -36.9754 22502.5
 31 03 2015  08 26  -14.4313 17977.2 -13534.9 -36.9757 22502.7
 31 03 2015  08 27  -14.4314 17977.3 -13535.1 -36.9761 22503.0
 31 03 2015  08 28  -14.4316 17977.5 -13534.7 -36.9749 22502.8
 31 03 2015  08 29  -14.4318 17977.5 -13534.7 -36.9748 22502.9
 31 03 2015  08 30  -14.4321 17977.6 -13534.8 -36.9749 22503.0
 31 03 2015  08 31  -14.4322 17977.6 -13534.8 -36.9748 22503.0
 31 03 2015  08 32  -14.4326 17977.9 -13534.7 -36.9743 22503.2
 31 03 2015  08 33  -14.4344 17980.9 -13535.5 -36.9712 22506.1
 31 03 2015  08 34  -14.4298 17984.3 -13535.9 -36.9669 22509.0
 31 03 2015  08 35  -14.4223 17985.9 -13535.7 -36.9640 22510.1
 31 03 2015  08 36  -14.4180 17987.3 -13535.6 -36.9616 22511.3
 31 03 2015  08 37  -14.4150 17987.9 -13535.2 -36.9600 22511.5
 31 03 2015  08 38  -14.4125 17988.1 -13535.0 -36.9592 22511.5
 31 03 2015  08 39  -14.4110 17988.1 -13534.7 -36.9586 22511.3
 31 03 2015  08 40  -14.4101 17988.1 -13534.4 -36.9579 22511.1
 31 03 2015  08 41  -14.4099 17987.9 -13534.2 -36.9579 22510.8
 31 03 2015  08 42  -14.4101 17988.0 -13534.2 -36.9578 22510.9
 31 03 2015  08 43  -14.4105 17988.1 -13534.2 -36.9576 22511.1
 31 03 2015  08 44  -14.4108 17988.2 -13533.9 -36.9569 22510.9
 31 03 2015  08 45  -14.4111 17988.3 -13534.0 -36.9570 22511.0
 31 03 2015  08 46  -14.4114 17988.4 -13533.9 -36.9565 22511.1
 31 03 2015  08 47  -14.4118 17988.7 -13534.0 -36.9564 22511.4
 31 03 2015  08 48  -14.4123 17989.1 -13534.2 -36.9561 22511.8
 31 03 2015  08 49  -14.4125 17989.2 -13533.9 -36.9554 22511.7
 31 03 2015  08 50  -14.4131 17989.4 -13534.1 -36.9556 22512.0
 31 03 2015  08 51  -14.4131 17989.5 -13534.1 -36.9553 22512.0
 31 03 2015  08 52  -14.4134 17989.4 -13533.8 -36.9548 22511.8
 31 03 2015  08 53  -14.4135 17989.5 -13533.9 -36.9548 22511.9
 31 03 2015  08 54  -14.4138 17989.8 -13533.8 -36.9541 22512.1
 31 03 2015  08 55  -14.4145 17990.0 -13533.8 -36.9539 22512.3
 31 03 2015  08 56  -14.4145 17990.7 -13533.9 -36.9530 22512.9
 31 03 2015  08 57  -14.4146 17991.0 -13533.7 -36.9523 22513.0
 31 03 2015  08 58  -14.4140 17991.3 -13534.0 -36.9522 22513.4
 31 03 2015  08 59  -14.4133 17991.5 -13534.0 -36.9520 22513.6
 31 03 2015  09 00  -14.4126 17991.7 -13533.8 -36.9513 22513.6
 31 03 2015  09 01  -14.4118 17991.8 -13533.5 -36.9506 22513.5
 31 03 2015  09 02  -14.4112 17991.8 -13533.9 -36.9514 22513.8
 31 03 2015  09 03  -14.4108 17991.9 -13533.6 -36.9506 22513.7
 31 03 2015  09 04  -14.4106 17992.1 -13533.7 -36.9505 22513.9
 31 03 2015  09 05  -14.4105 17992.2 -13533.6 -36.9500 22513.9
 31 03 2015  09 06  -14.4104 17992.1 -13533.5 -36.9501 22513.8
 31 03 2015  09 07  -14.4110 17991.9 -13533.5 -36.9505 22513.7
 31 03 2015  09 08  -14.4111 17992.0 -13533.4 -36.9501 22513.6
 31 03 2015  09 09  -14.4110 17992.1 -13533.5 -36.9500 22513.8
 31 03 2015  09 10  -14.4107 17992.3 -13533.4 -36.9496 22513.9
 31 03 2015  09 11  -14.4102 17992.5 -13533.5 -36.9495 22514.1
 31 03 2015  09 12  -14.4095 17992.6 -13533.5 -36.9492 22514.2
 31 03 2015  09 13  -14.4092 17992.8 -13533.5 -36.9491 22514.4
 31 03 2015  09 14  -14.4089 17992.9 -13533.4 -36.9488 22514.4
 31 03 2015  09 15  -14.4088 17992.9 -13533.6 -36.9491 22514.5
 31 03 2015  09 16  -14.4088 17992.9 -13533.4 -36.9487 22514.4
 31 03 2015  09 17  -14.4085 17993.9 -13533.5 -36.9474 22515.3
 31 03 2015  09 18  -14.4079 17994.6 -13533.6 -36.9464 22515.8
 31 03 2015  09 19  -14.4074 17995.0 -13533.4 -36.9454 22516.1
 31 03 2015  09 20  -14.4071 17995.4 -13533.8 -36.9457 22516.6
 31 03 2015  09 21  -14.4068 17994.7 -13533.4 -36.9458 22515.8
 31 03 2015  09 22  -14.4060 17993.7 -13533.1 -36.9469 22514.8
 31 03 2015  09 23  -14.4056 17993.2 -13533.0 -36.9474 22514.3
 31 03 2015  09 24  -14.4051 17992.9 -13532.9 -36.9476 22514.1
 31 03 2015  09 25  -14.4047 17992.8 -13533.2 -36.9483 22514.2
 31 03 2015  09 26  -14.4040 17993.2 -13533.3 -36.9481 22514.5
 31 03 2015  09 27  -14.4037 17993.5 -13533.4 -36.9476 22514.9
 31 03 2015  09 28  -14.4031 17993.7 -13533.3 -36.9472 22515.0
 31 03 2015  09 29  -14.4021 17993.9 -13533.4 -36.9470 22515.1
 31 03 2015  09 30  -14.4011 17994.1 -13533.4 -36.9468 22515.4
 31 03 2015  09 31  -14.4005 17993.9 -13533.5 -36.9473 22515.2
 31 03 2015  09 32  -14.3998 17994.2 -13533.5 -36.9467 22515.5
 31 03 2015  09 33  -14.3996 17994.5 -13533.7 -36.9468 22515.8
 31 03 2015  09 34  -14.3993 17994.7 -13533.7 -36.9465 22516.0
 31 03 2015  09 35  -14.3989 17995.1 -13533.9 -36.9463 22516.4
 31 03 2015  09 36  -14.3984 17995.0 -13533.7 -36.9460 22516.3
 31 03 2015  09 37  -14.3974 17994.5 -13533.6 -36.9465 22515.8
 31 03 2015  09 38  -14.3970 17994.2 -13533.8 -36.9475 22515.7
 31 03 2015  09 39  -14.3971 17994.1 -13533.7 -36.9475 22515.5
 31 03 2015  09 40  -14.3975 17994.0 -13533.7 -36.9476 22515.4
 31 03 2015  09 41  -14.3976 17993.9 -13533.9 -36.9481 22515.5
 31 03 2015  09 42  -14.3972 17994.0 -13534.2 -36.9485 22515.7
 31 03 2015  09 43  -14.3969 17994.4 -13534.2 -36.9481 22516.0
 31 03 2015  09 44  -14.3975 17994.7 -13534.4 -36.9479 22516.4
 31 03 2015  09 45  -14.3983 17994.8 -13534.6 -36.9481 22516.6
 31 03 2015  09 46  -14.3990 17994.6 -13534.5 -36.9482 22516.3
 31 03 2015  09 47  -14.3999 17994.2 -13534.4 -36.9488 22516.0
 31 03 2015  09 48  -14.4005 17993.7 -13534.5 -36.9497 22515.7
 31 03 2015  09 49  -14.4009 17993.5 -13534.8 -36.9505 22515.7
 31 03 2015  09 50  -14.4018 17993.6 -13534.8 -36.9504 22515.8
 31 03 2015  09 51  -14.4020 17993.3 -13534.7 -36.9507 22515.5
 31 03 2015  09 52  -14.4020 17993.2 -13534.7 -36.9508 22515.4
 31 03 2015  09 53  -14.4022 17993.1 -13535.0 -36.9515 22515.5
 31 03 2015  09 54  -14.4023 17993.2 -13534.9 -36.9511 22515.5
 31 03 2015  09 55  -14.4026 17993.5 -13535.4 -36.9519 22516.1
 31 03 2015  09 56  -14.4032 17993.4 -13535.3 -36.9517 22515.9
 31 03 2015  09 57  -14.4034 17993.3 -13535.3 -36.9519 22515.8
 31 03 2015  09 58  -14.4034 17993.4 -13535.5 -36.9522 22516.1
 31 03 2015  09 59  -14.4030 17993.5 -13535.6 -36.9523 22516.2
 31 03 2015  10 00  -14.4025 17993.5 -13536.0 -36.9530 22516.4
 31 03 2015  10 01  -14.4026 17993.5 -13536.0 -36.9531 22516.4
 31 03 2015  10 02  -14.4026 17993.4 -13536.2 -36.9535 22516.5
 31 03 2015  10 03  -14.4026 17993.4 -13536.4 -36.9540 22516.6
 31 03 2015  10 04  -14.4028 17993.3 -13536.5 -36.9543 22516.5
 31 03 2015  10 05  -14.4033 17993.2 -13536.8 -36.9551 22516.6
 31 03 2015  10 06  -14.4037 17993.1 -13537.1 -36.9558 22516.8
 31 03 2015  10 07  -14.4042 17993.0 -13537.1 -36.9561 22516.7
 31 03 2015  10 08  -14.4042 17992.8 -13537.3 -36.9568 22516.7
 31 03 2015  10 09  -14.4041 17992.8 -13537.5 -36.9572 22516.7
 31 03 2015  10 10  -14.4043 17992.9 -13537.6 -36.9572 22516.9
 31 03 2015  10 11  -14.4047 17993.0 -13537.9 -36.9576 22517.2
 31 03 2015  10 12  -14.4048 17992.9 -13538.3 -36.9585 22517.3
 31 03 2015  10 13  -14.4047 17993.1 -13538.4 -36.9586 22517.5
 31 03 2015  10 14  -14.4052 17993.2 -13538.7 -36.9590 22517.8
 31 03 2015  10 15  -14.4063 17993.2 -13538.7 -36.9589 22517.8
 31 03 2015  10 16  -14.4072 17993.1 -13538.9 -36.9595 22517.9
 31 03 2015  10 17  -14.4080 17993.4 -13539.2 -36.9597 22518.2
 31 03 2015  10 18  -14.4086 17994.0 -13539.4 -36.9592 22518.9
 31 03 2015  10 19  -14.4093 17994.3 -13539.6 -36.9591 22519.2
 31 03 2015  10 20  -14.4103 17994.3 -13539.4 -36.9588 22519.1
 31 03 2015  10 21  -14.4112 17994.1 -13539.6 -36.9595 22519.1
 31 03 2015  10 22  -14.4117 17994.0 -13539.8 -36.9601 22519.1
 31 03 2015  10 23  -14.4123 17993.9 -13539.8 -36.9600 22519.0
 31 03 2015  10 24  -14.4127 17994.4 -13540.1 -36.9600 22519.6
 31 03 2015  10 25  -14.4137 17994.9 -13540.4 -36.9599 22520.2
 31 03 2015  10 26  -14.4155 17994.7 -13540.4 -36.9603 22520.0
 31 03 2015  10 27  -14.4170 17994.2 -13540.5 -36.9610 22519.6
 31 03 2015  10 28  -14.4175 17994.1 -13540.6 -36.9614 22519.6
 31 03 2015  10 29  -14.4183 17994.3 -13541.0 -36.9619 22520.1
 31 03 2015  10 30  -14.4193 17994.5 -13541.2 -36.9622 22520.4
 31 03 2015  10 31  -14.4211 17994.4 -13540.9 -36.9615 22520.1
 31 03 2015  10 32  -14.4225 17994.3 -13541.3 -36.9625 22520.3
 31 03 2015  10 33  -14.4237 17994.4 -13541.3 -36.9625 22520.4
 31 03 2015  10 34  -14.4246 17994.5 -13541.4 -36.9626 22520.4
 31 03 2015  10 35  -14.4252 17994.6 -13541.4 -36.9623 22520.5
 31 03 2015  10 36  -14.4260 17994.6 -13541.4 -36.9623 22520.6
 31 03 2015  10 37  -14.4267 17994.6 -13541.6 -36.9627 22520.7
 31 03 2015  10 38  -14.4268 17994.6 -13541.6 -36.9628 22520.7
 31 03 2015  10 39  -14.4267 17994.6 -13541.8 -36.9632 22520.8
 31 03 2015  10 40  -14.4272 17994.6 -13541.9 -36.9634 22520.9
 31 03 2015  10 41  -14.4276 17994.6 -13542.0 -36.9634 22520.9
 31 03 2015  10 42  -14.4278 17994.7 -13541.9 -36.9633 22520.9
 31 03 2015  10 43  -14.4278 17994.8 -13542.3 -36.9638 22521.3
 31 03 2015  10 44  -14.4288 17994.6 -13542.3 -36.9641 22521.1
 31 03 2015  10 45  -14.4301 17994.6 -13542.3 -36.9642 22521.1
 31 03 2015  10 46  -14.4308 17995.0 -13542.1 -36.9632 22521.3
 31 03 2015  10 47  -14.4318 17995.0 -13542.7 -36.9643 22521.7
 31 03 2015  10 48  -14.4329 17994.8 -13542.6 -36.9645 22521.4
 31 03 2015  10 49  -14.4340 17994.9 -13543.1 -36.9652 22521.8
 31 03 2015  10 50  -14.4354 17995.0 -13542.4 -36.9638 22521.5
 31 03 2015  10 51  -14.4366 17995.0 -13542.6 -36.9641 22521.6
 31 03 2015  10 52  -14.4376 17994.9 -13542.8 -36.9648 22521.7
 31 03 2015  10 53  -14.4391 17994.6 -13542.4 -36.9644 22521.1
 31 03 2015  10 54  -14.4405 17994.6 -13542.6 -36.9647 22521.2
 31 03 2015  10 55  -14.4414 17995.0 -13542.8 -36.9645 22521.6
 31 03 2015  10 56  -14.4422 17995.3 -13542.5 -36.9636 22521.8
 31 03 2015  10 57  -14.4436 17995.4 -13542.8 -36.9639 22522.0
 31 03 2015  10 58  -14.4458 17995.2 -13542.6 -36.9637 22521.8
 31 03 2015  10 59  -14.4483 17995.1 -13542.4 -36.9637 22521.6
 31 03 2015  11 00  -14.4495 17995.6 -13542.4 -36.9629 22521.9
 31 03 2015  11 01  -14.4513 17996.1 -13542.8 -36.9627 22522.6
 31 03 2015  11 02  -14.4535 17996.3 -13542.6 -36.9621 22522.6
 31 03 2015  11 03  -14.4550 17996.3 -13542.6 -36.9623 22522.6
 31 03 2015  11 04  -14.4577 17996.3 -13542.2 -36.9614 22522.4
 31 03 2015  11 05  -14.4602 17996.4 -13542.3 -36.9614 22522.5
 31 03 2015  11 06  -14.4619 17996.6 -13542.5 -36.9615 22522.8
 31 03 2015  11 07  -14.4627 17996.8 -13542.4 -36.9608 22522.9
 31 03 2015  11 08  -14.4631 17996.9 -13542.1 -36.9603 22522.8
 31 03 2015  11 09  -14.4642 17997.0 -13541.9 -36.9596 22522.7
 31 03 2015  11 10  -14.4656 17996.8 -13542.0 -36.9603 22522.7
 31 03 2015  11 11  -14.4670 17996.8 -13541.9 -36.9600 22522.6
 31 03 2015  11 12  -14.4684 17996.9 -13541.8 -36.9595 22522.6
 31 03 2015  11 13  -14.4690 17996.5 -13541.5 -36.9597 22522.2
 31 03 2015  11 14  -14.4689 17996.7 -13541.8 -36.9600 22522.5
 31 03 2015  11 15  -14.4697 17996.6 -13541.5 -36.9595 22522.3
 31 03 2015  11 16  -14.4697 17996.8 -13541.6 -36.9593 22522.5
 31 03 2015  11 17  -14.4696 17997.3 -13541.7 -36.9589 22522.9
 31 03 2015  11 18  -14.4706 17997.4 -13541.4 -36.9581 22522.8
 31 03 2015  11 19  -14.4706 17997.6 -13541.3 -36.9575 22522.9
 31 03 2015  11 20  -14.4710 17997.5 -13541.5 -36.9581 22523.0
 31 03 2015  11 21  -14.4724 17997.5 -13541.4 -36.9578 22522.9
 31 03 2015  11 22  -14.4739 17997.7 -13541.2 -36.9571 22522.9
 31 03 2015  11 23  -14.4759 17997.4 -13541.3 -36.9578 22522.7
 31 03 2015  11 24  -14.4793 17996.8 -13540.9 -36.9579 22522.0
 31 03 2015  11 25  -14.4805 17996.7 -13540.9 -36.9581 22521.9
 31 03 2015  11 26  -14.4799 17996.6 -13540.7 -36.9577 22521.7
 31 03 2015  11 27  -14.4802 17996.6 -13540.8 -36.9581 22521.8
 31 03 2015  11 28  -14.4817 17996.4 -13540.5 -36.9577 22521.4
 31 03 2015  11 29  -14.4831 17996.3 -13540.5 -36.9579 22521.3
 31 03 2015  11 30  -14.4859 17996.1 -13540.5 -36.9582 22521.2
 31 03 2015  11 31  -14.4879 17996.2 -13540.2 -36.9575 22521.1
 31 03 2015  11 32  -14.4902 17995.9 -13540.1 -36.9578 22520.8
 31 03 2015  11 33  -14.4914 17995.7 -13540.0 -36.9577 22520.6
 31 03 2015  11 34  -14.4936 17996.1 -13540.0 -36.9572 22521.0
 31 03 2015  11 35  -14.4958 17997.3 -13540.3 -36.9559 22522.0
 31 03 2015  11 36  -14.4945 17998.3 -13540.2 -36.9542 22522.7
 31 03 2015  11 37  -14.4943 17998.2 -13539.9 -36.9539 22522.5
 31 03 2015  11 38  -14.4979 17997.7 -13539.2 -36.9532 22521.7
 31 03 2015  11 39  -14.4986 17996.7 -13538.9 -36.9542 22520.7
 31 03 2015  11 40  -14.4991 17995.5 -13538.1 -36.9542 22519.3
 31 03 2015  11 41  -14.4991 17994.2 -13538.1 -36.9563 22518.2
 31 03 2015  11 42  -14.4978 17993.3 -13538.0 -36.9573 22517.4
 31 03 2015  11 43  -14.4983 17993.5 -13538.4 -36.9578 22517.9
 31 03 2015  11 44  -14.5000 17993.6 -13538.3 -36.9577 22517.9
 31 03 2015  11 45  -14.4993 17993.4 -13538.5 -36.9581 22517.8
 31 03 2015  11 46  -14.4982 17993.7 -13538.7 -36.9583 22518.2
 31 03 2015  11 47  -14.4988 17994.0 -13538.6 -36.9577 22518.4
 31 03 2015  11 48  -14.4980 17994.4 -13538.6 -36.9569 22518.7
 31 03 2015  11 49  -14.4972 17994.5 -13538.3 -36.9563 22518.6
 31 03 2015  11 50  -14.4971 17994.4 -13538.1 -36.9558 22518.4
 31 03 2015  11 51  -14.4968 17994.0 -13538.0 -36.9563 22518.0
 31 03 2015  11 52  -14.4972 17993.8 -13537.8 -36.9562 22517.8
 31 03 2015  11 53  -14.4976 17993.9 -13537.7 -36.9559 22517.8
 31 03 2015  11 54  -14.4970 17994.0 -13537.7 -36.9558 22517.8
 31 03 2015  11 55  -14.4961 17994.1 -13537.7 -36.9556 22517.9
 31 03 2015  11 56  -14.4955 17994.1 -13537.7 -36.9556 22517.9
 31 03 2015  11 57  -14.4960 17994.1 -13537.3 -36.9547 22517.6
 31 03 2015  11 58  -14.4971 17993.8 -13537.3 -36.9551 22517.5
 31 03 2015  11 59  -14.4964 17994.4 -13537.2 -36.9541 22517.8
 31 03 2015  12 00  -14.4966 17994.5 -13537.2 -36.9538 22517.9
 31 03 2015  12 01  -14.4973 17994.7 -13536.7 -36.9527 22517.8
 31 03 2015  12 02  -14.4962 17994.8 -13536.9 -36.9529 22518.0
 31 03 2015  12 03  -14.4959 17994.8 -13536.5 -36.9520 22517.8
 31 03 2015  12 04  -14.4979 17994.3 -13536.3 -36.9524 22517.3
 31 03 2015  12 05  -14.5018 17993.2 -13535.8 -36.9532 22516.1
 31 03 2015  12 06  -14.5047 17991.9 -13535.5 -36.9545 22514.9
 31 03 2015  12 07  -14.5044 17991.2 -13535.6 -36.9557 22514.4
 31 03 2015  12 08  -14.5039 17991.2 -13535.6 -36.9557 22514.3
 31 03 2015  12 09  -14.5045 17991.0 -13535.7 -36.9563 22514.2
 31 03 2015  12 10  -14.5050 17991.3 -13535.7 -36.9558 22514.5
 31 03 2015  12 11  -14.5054 17991.0 -13535.7 -36.9562 22514.2
 31 03 2015  12 12  -14.5078 17990.8 -13535.7 -36.9565 22514.1
 31 03 2015  12 13  -14.5085 17991.3 -13535.5 -36.9554 22514.4
 31 03 2015  12 14  -14.5067 17991.8 -13535.8 -36.9552 22514.9
 31 03 2015  12 15  -14.5068 17991.9 -13535.7 -36.9550 22515.0
 31 03 2015  12 16  -14.5073 17992.0 -13535.7 -36.9547 22515.0
 31 03 2015  12 17  -14.5069 17992.6 -13535.8 -36.9540 22515.6
 31 03 2015  12 18  -14.5084 17992.7 -13535.7 -36.9535 22515.6
 31 03 2015  12 19  -14.5094 17992.9 -13535.3 -36.9525 22515.5
 31 03 2015  12 20  -14.5090 17993.1 -13535.4 -36.9524 22515.7
 31 03 2015  12 21  -14.5092 17993.6 -13535.3 -36.9515 22516.1
 31 03 2015  12 22  -14.5110 17994.1 -13535.2 -36.9505 22516.4
 31 03 2015  12 23  -14.5113 17994.5 -13535.0 -36.9496 22516.6
 31 03 2015  12 24  -14.5127 17994.9 -13535.0 -36.9488 22517.0
 31 03 2015  12 25  -14.5140 17995.7 -13534.9 -36.9474 22517.6
 31 03 2015  12 26  -14.5135 17996.1 -13534.5 -36.9461 22517.6
 31 03 2015  12 27  -14.5127 17996.4 -13534.5 -36.9455 22517.8
 31 03 2015  12 28  -14.5121 17996.8 -13534.4 -36.9447 22518.1
 31 03 2015  12 29  -14.5110 17997.3 -13534.4 -36.9439 22518.5
 31 03 2015  12 30  -14.5097 17997.6 -13534.2 -36.9432 22518.6
 31 03 2015  12 31  -14.5075 17998.2 -13534.1 -36.9421 22519.1
 31 03 2015  12 32  -14.5063 17998.1 -13533.8 -36.9416 22518.8
 31 03 2015  12 33  -14.5057 17998.3 -13533.7 -36.9410 22518.8
 31 03 2015  12 34  -14.5046 17998.0 -13533.3 -36.9406 22518.4
 31 03 2015  12 35  -14.5042 17997.8 -13533.1 -36.9406 22518.1
 31 03 2015  12 36  -14.5043 17997.0 -13532.9 -36.9412 22517.4
 31 03 2015  12 37  -14.5044 17996.2 -13532.6 -36.9420 22516.6
 31 03 2015  12 38  -14.5049 17995.8 -13532.6 -36.9426 22516.3
 31 03 2015  12 39  -14.5058 17996.0 -13532.5 -36.9421 22516.3
 31 03 2015  12 40  -14.5070 17996.3 -13532.5 -36.9417 22516.6
 31 03 2015  12 41  -14.5082 17996.1 -13532.5 -36.9419 22516.4
 31 03 2015  12 42  -14.5087 17996.3 -13532.3 -36.9413 22516.5
 31 03 2015  12 43  -14.5091 17996.2 -13532.3 -36.9414 22516.3
 31 03 2015  12 44  -14.5087 17996.3 -13532.0 -36.9406 22516.2
 31 03 2015  12 45  -14.5088 17996.1 -13532.2 -36.9413 22516.2
 31 03 2015  12 46  -14.5103 17996.0 -13531.8 -36.9408 22515.9
 31 03 2015  12 47  -14.5120 17995.8 -13531.7 -36.9407 22515.7
 31 03 2015  12 48  -14.5138 17996.0 -13531.7 -36.9404 22515.8
 31 03 2015  12 49  -14.5140 17996.1 -13531.6 -36.9401 22515.9
 31 03 2015  12 50  -14.5137 17996.4 -13531.6 -36.9395 22516.1
 31 03 2015  12 51  -14.5140 17996.5 -13531.6 -36.9395 22516.2
 31 03 2015  12 52  -14.5153 17995.9 -13531.1 -36.9394 22515.4
 31 03 2015  12 53  -14.5165 17995.6 -13531.1 -36.9397 22515.2
 31 03 2015  12 54  -14.5174 17995.7 -13531.1 -36.9397 22515.3
 31 03 2015  12 55  -14.5181 17996.1 -13531.0 -36.9389 22515.4
 31 03 2015  12 56  -14.5179 17996.3 -13530.9 -36.9383 22515.6
 31 03 2015  12 57  -14.5184 17996.3 -13531.0 -36.9386 22515.7
 31 03 2015  12 58  -14.5192 17996.3 -13530.8 -36.9381 22515.5
 31 03 2015  12 59  -14.5208 17996.4 -13530.8 -36.9379 22515.6
 31 03 2015  13 00  -14.5205 17997.1 -13530.7 -36.9368 22516.1
 31 03 2015  13 01  -14.5195 17997.4 -13530.7 -36.9362 22516.3
 31 03 2015  13 02  -14.5196 17997.1 -13530.5 -36.9363 22515.9
 31 03 2015  13 03  -14.5199 17997.1 -13530.1 -36.9355 22515.7
 31 03 2015  13 04  -14.5203 17996.9 -13529.7 -36.9350 22515.4
 31 03 2015  13 05  -14.5197 17997.0 -13529.8 -36.9351 22515.5
 31 03 2015  13 06  -14.5187 17997.3 -13529.9 -36.9348 22515.8
 31 03 2015  13 07  -14.5184 17997.7 -13530.0 -36.9346 22516.2
 31 03 2015  13 08  -14.5187 17998.5 -13530.3 -36.9338 22517.0
 31 03 2015  13 09  -14.5183 17999.4 -13530.2 -36.9322 22517.6
 31 03 2015  13 10  -14.5170 18001.0 -13530.1 -36.9294 22518.9
 31 03 2015  13 11  -14.5151 18003.4 -13530.6 -36.9268 22521.1
 31 03 2015  13 12  -14.5137 18004.8 -13530.3 -36.9243 22522.0
 31 03 2015  13 13  -14.5129 18005.7 -13529.8 -36.9218 22522.4
 31 03 2015  13 14  -14.5124 18006.5 -13529.7 -36.9203 22523.0
 31 03 2015  13 15  -14.5109 18007.9 -13529.4 -36.9175 22524.0
 31 03 2015  13 16  -14.5089 18009.0 -13529.2 -36.9155 22524.8
 31 03 2015  13 17  -14.5076 18009.8 -13529.1 -36.9139 22525.3
 31 03 2015  13 18  -14.5066 18010.6 -13528.9 -36.9124 22525.8
 31 03 2015  13 19  -14.5045 18012.2 -13528.6 -36.9094 22526.9
 31 03 2015  13 20  -14.5017 18014.3 -13528.8 -36.9068 22528.7
 31 03 2015  13 21  -14.5000 18015.7 -13528.8 -36.9044 22529.8
 31 03 2015  13 22  -14.5005 18016.1 -13528.7 -36.9036 22530.1
 31 03 2015  13 23  -14.5009 18016.7 -13527.8 -36.9010 22530.0
 31 03 2015  13 24  -14.4999 18017.8 -13527.9 -36.8993 22531.0
 31 03 2015  13 25  -14.4986 18018.7 -13527.5 -36.8973 22531.5
 31 03 2015  13 26  -14.4978 18019.7 -13527.7 -36.8960 22532.4
 31 03 2015  13 27  -14.4967 18020.9 -13527.6 -36.8941 22533.3
 31 03 2015  13 28  -14.4966 18021.9 -13527.3 -36.8921 22533.9
 31 03 2015  13 29  -14.4973 18022.7 -13527.0 -36.8901 22534.4
 31 03 2015  13 30  -14.4986 18022.8 -13526.8 -36.8894 22534.3
 31 03 2015  13 31  -14.4984 18023.7 -13526.2 -36.8869 22534.6
 31 03 2015  13 32  -14.4984 18024.2 -13526.4 -36.8865 22535.2
 31 03 2015  13 33  -14.4994 18025.2 -13525.9 -36.8840 22535.7
 31 03 2015  13 34  -14.4997 18026.5 -13526.1 -36.8826 22536.9
 31 03 2015  13 35  -14.5004 18027.4 -13526.0 -36.8810 22537.5
 31 03 2015  13 36  -14.5013 18028.5 -13525.6 -36.8785 22538.1
 31 03 2015  13 37  -14.5013 18029.6 -13525.3 -36.8760 22538.9
 31 03 2015  13 38  -14.5012 18029.9 -13525.2 -36.8754 22539.0
 31 03 2015  13 39  -14.5023 18028.8 -13524.5 -36.8756 22537.7
 31 03 2015  13 40  -14.5031 18027.5 -13524.2 -36.8771 22536.5
 31 03 2015  13 41  -14.5026 18027.6 -13524.0 -36.8765 22536.4
 31 03 2015  13 42  -14.5018 18027.6 -13524.3 -36.8772 22536.6
 31 03 2015  13 43  -14.5014 18026.9 -13524.5 -36.8785 22536.3
 31 03 2015  13 44  -14.5002 18026.7 -13524.2 -36.8782 22535.9
 31 03 2015  13 45  -14.4985 18027.6 -13524.5 -36.8775 22536.8
 31 03 2015  13 46  -14.4992 18027.4 -13524.0 -36.8768 22536.3
 31 03 2015  13 47  -14.5007 18027.0 -13524.1 -36.8775 22536.1
 31 03 2015  13 48  -14.5013 18027.5 -13524.1 -36.8769 22536.5
 31 03 2015  13 49  -14.5027 18027.8 -13523.9 -36.8759 22536.6
 31 03 2015  13 50  -14.5031 18028.7 -13524.3 -36.8755 22537.5
 31 03 2015  13 51  -14.5033 18029.0 -13524.1 -36.8744 22537.7
 31 03 2015  13 52  -14.5041 18029.2 -13523.8 -36.8737 22537.6
 31 03 2015  13 53  -14.5067 18028.6 -13523.7 -36.8744 22537.1
 31 03 2015  13 54  -14.5101 18027.7 -13523.3 -36.8750 22536.2
 31 03 2015  13 55  -14.5138 18025.7 -13523.0 -36.8775 22534.4
 31 03 2015  13 56  -14.5181 18022.6 -13522.8 -36.8817 22531.8
 31 03 2015  13 57  -14.5231 18020.1 -13522.3 -36.8845 22529.4
 31 03 2015  13 58  -14.5268 18018.6 -13522.8 -36.8878 22528.5
 31 03 2015  13 59  -14.5282 18018.7 -13522.9 -36.8878 22528.7
 31 03 2015  14 00  -14.5299 18018.6 -13523.3 -36.8889 22528.9
 31 03 2015  14 01  -14.5311 18019.0 -13523.6 -36.8890 22529.4
 31 03 2015  14 02  -14.5320 18019.0 -13523.5 -36.8886 22529.3
 31 03 2015  14 03  -14.5326 18019.3 -13523.5 -36.8882 22529.5
 31 03 2015  14 04  -14.5323 18020.1 -13523.7 -36.8873 22530.3
 31 03 2015  14 05  -14.5321 18020.8 -13523.9 -36.8867 22531.0
 31 03 2015  14 06  -14.5314 18021.5 -13523.9 -36.8855 22531.5
 31 03 2015  14 07  -14.5299 18022.2 -13524.1 -36.8849 22532.3
 31 03 2015  14 08  -14.5294 18022.4 -13524.0 -36.8844 22532.3
 31 03 2015  14 09  -14.5303 18023.1 -13524.1 -36.8835 22532.9
 31 03 2015  14 10  -14.5302 18025.5 -13524.4 -36.8806 22535.0
 31 03 2015  14 11  -14.5282 18028.9 -13524.4 -36.8753 22537.8
 31 03 2015  14 12  -14.5257 18030.8 -13524.2 -36.8721 22539.2
 31 03 2015  14 13  -14.5225 18032.0 -13523.9 -36.8696 22539.9
 31 03 2015  14 14  -14.5189 18032.6 -13523.7 -36.8682 22540.3
 31 03 2015  14 15  -14.5173 18032.9 -13523.1 -36.8666 22540.1
 31 03 2015  14 16  -14.5158 18034.5 -13523.2 -36.8644 22541.5
 31 03 2015  14 17  -14.5154 18035.7 -13522.7 -36.8616 22542.2
 31 03 2015  14 18  -14.5144 18036.8 -13522.6 -36.8598 22543.0
 31 03 2015  14 19  -14.5126 18037.9 -13522.2 -36.8571 22543.7
 31 03 2015  14 20  -14.5107 18039.2 -13522.0 -36.8548 22544.6
 31 03 2015  14 21  -14.5092 18039.8 -13522.1 -36.8539 22545.1
 31 03 2015  14 22  -14.5085 18040.0 -13521.9 -36.8532 22545.2
 31 03 2015  14 23  -14.5062 18039.9 -13521.5 -36.8527 22544.8
 31 03 2015  14 24  -14.5069 18037.1 -13520.9 -36.8558 22542.2
 31 03 2015  14 25  -14.5083 18036.2 -13520.6 -36.8564 22541.3
 31 03 2015  14 26  -14.5084 18036.3 -13520.8 -36.8567 22541.6
 31 03 2015  14 27  -14.5091 18036.2 -13520.5 -36.8564 22541.3
 31 03 2015  14 28  -14.5097 18036.1 -13520.7 -36.8568 22541.3
 31 03 2015  14 29  -14.5099 18036.0 -13520.7 -36.8570 22541.2
 31 03 2015  14 30  -14.5093 18036.3 -13520.7 -36.8566 22541.5
 31 03 2015  14 31  -14.5086 18036.8 -13520.8 -36.8560 22542.0
 31 03 2015  14 32  -14.5082 18037.7 -13520.7 -36.8544 22542.6
 31 03 2015  14 33  -14.5083 18038.3 -13520.5 -36.8531 22543.0
 31 03 2015  14 34  -14.5076 18039.2 -13520.7 -36.8521 22543.8
 31 03 2015  14 35  -14.5060 18040.4 -13520.9 -36.8508 22544.9
 31 03 2015  14 36  -14.5037 18041.6 -13521.0 -36.8490 22545.9
 31 03 2015  14 37  -14.5019 18042.3 -13520.8 -36.8475 22546.3
 31 03 2015  14 38  -14.5009 18042.3 -13520.2 -36.8464 22545.9
 31 03 2015  14 39  -14.4996 18041.9 -13520.2 -36.8470 22545.6
 31 03 2015  14 40  -14.4991 18041.1 -13519.9 -36.8475 22544.8
 31 03 2015  14 41  -14.4995 18040.4 -13519.6 -36.8481 22544.1
 31 03 2015  14 42  -14.5001 18040.4 -13519.8 -36.8484 22544.2
 31 03 2015  14 43  -14.4999 18040.0 -13519.6 -36.8486 22543.8
 31 03 2015  14 44  -14.5005 18039.5 -13519.6 -36.8494 22543.3
 31 03 2015  14 45  -14.4998 18039.4 -13519.5 -36.8494 22543.3
 31 03 2015  14 46  -14.4987 18039.5 -13519.6 -36.8495 22543.3
 31 03 2015  14 47  -14.4971 18039.7 -13519.7 -36.8493 22543.6
 31 03 2015  14 48  -14.4960 18039.3 -13519.8 -36.8500 22543.3
 31 03 2015  14 49  -14.4942 18039.5 -13519.8 -36.8497 22543.5
 31 03 2015  14 50  -14.4938 18039.2 -13519.8 -36.8503 22543.2
 31 03 2015  14 51  -14.4950 18039.1 -13519.7 -36.8502 22543.1
 31 03 2015  14 52  -14.4969 18039.2 -13519.6 -36.8498 22543.1
 31 03 2015  14 53  -14.4971 18039.6 -13519.4 -36.8489 22543.3
 31 03 2015  14 54  -14.4950 18041.2 -13519.7 -36.8471 22544.8
 31 03 2015  14 55  -14.4924 18042.5 -13519.7 -36.8450 22545.8
 31 03 2015  14 56  -14.4894 18043.5 -13519.6 -36.8434 22546.6
 31 03 2015  14 57  -14.4863 18043.6 -13519.6 -36.8431 22546.7
 31 03 2015  14 58  -14.4843 18043.5 -13519.2 -36.8426 22546.3
 31 03 2015  14 59  -14.4843 18042.6 -13519.0 -36.8435 22545.5
 31 03 2015  15 00  -14.4840 18042.4 -13518.7 -36.8431 22545.1
 31 03 2015  15 01  -14.4837 18042.3 -13518.5 -36.8429 22545.0
 31 03 2015  15 02  -14.4835 18041.9 -13518.1 -36.8427 22544.4
 31 03 2015  15 03  -14.4824 18042.2 -13518.1 -36.8423 22544.6
 31 03 2015  15 04  -14.4811 18042.9 -13518.1 -36.8411 22545.2
 31 03 2015  15 05  -14.4790 18043.9 -13518.7 -36.8409 22546.4
 31 03 2015  15 06  -14.4774 18044.4 -13518.5 -36.8397 22546.6
 31 03 2015  15 07  -14.4753 18044.7 -13518.3 -36.8389 22546.8
 31 03 2015  15 08  -14.4745 18043.9 -13518.0 -36.8394 22545.9
 31 03 2015  15 09  -14.4734 18043.6 -13518.1 -36.8401 22545.7
 31 03 2015  15 10  -14.4731 18043.0 -13517.5 -36.8399 22544.9
 31 03 2015  15 11  -14.4731 18042.4 -13517.8 -36.8414 22544.6
 31 03 2015  15 12  -14.4729 18041.9 -13517.5 -36.8415 22544.0
 31 03 2015  15 13  -14.4726 18041.3 -13517.4 -36.8422 22543.5
 31 03 2015  15 14  -14.4723 18041.0 -13517.5 -36.8430 22543.3
 31 03 2015  15 15  -14.4712 18040.4 -13517.5 -36.8437 22542.8
 31 03 2015  15 16  -14.4705 18040.2 -13517.6 -36.8444 22542.7
 31 03 2015  15 17  -14.4703 18039.7 -13517.4 -36.8447 22542.2
 31 03 2015  15 18  -14.4700 18039.4 -13517.5 -36.8452 22542.0
 31 03 2015  15 19  -14.4690 18039.4 -13517.4 -36.8452 22542.0
 31 03 2015  15 20  -14.4678 18039.2 -13517.1 -36.8449 22541.6
 31 03 2015  15 21  -14.4669 18038.9 -13517.4 -36.8458 22541.5
 31 03 2015  15 22  -14.4663 18038.6 -13517.6 -36.8468 22541.5
 31 03 2015  15 23  -14.4659 18038.2 -13517.8 -36.8476 22541.3
 31 03 2015  15 24  -14.4653 18037.9 -13517.3 -36.8473 22540.7
 31 03 2015  15 25  -14.4644 18037.8 -13517.8 -36.8484 22540.9
 31 03 2015  15 26  -14.4634 18037.8 -13517.8 -36.8483 22540.9
 31 03 2015  15 27  -14.4620 18038.0 -13517.8 -36.8482 22541.1
 31 03 2015  15 28  -14.4614 18037.8 -13517.9 -36.8486 22541.0
 31 03 2015  15 29  -14.4602 18038.1 -13517.9 -36.8480 22541.2
 31 03 2015  15 30  -14.4591 18038.2 -13517.9 -36.8481 22541.3
 31 03 2015  15 31  -14.4583 18038.2 -13517.7 -36.8475 22541.2
 31 03 2015  15 32  -14.4583 18038.1 -13517.3 -36.8470 22540.9
 31 03 2015  15 33  -14.4578 18038.5 -13517.5 -36.8466 22541.3
 31 03 2015  15 34  -14.4565 18039.0 -13517.5 -36.8458 22541.7
 31 03 2015  15 35  -14.4551 18038.9 -13517.6 -36.8462 22541.7
 31 03 2015  15 36  -14.4544 18038.9 -13517.6 -36.8464 22541.7
 31 03 2015  15 37  -14.4535 18038.9 -13517.4 -36.8459 22541.6
 31 03 2015  15 38  -14.4517 18038.8 -13517.6 -36.8464 22541.6
 31 03 2015  15 39  -14.4504 18038.5 -13517.5 -36.8467 22541.3
 31 03 2015  15 40  -14.4500 18038.3 -13517.4 -36.8468 22541.1
 31 03 2015  15 41  -14.4488 18037.8 -13517.5 -36.8478 22540.7
 31 03 2015  15 42  -14.4483 18037.3 -13517.6 -36.8487 22540.4
 31 03 2015  15 43  -14.4478 18037.2 -13517.5 -36.8488 22540.3
 31 03 2015  15 44  -14.4474 18037.2 -13517.9 -36.8494 22540.5
 31 03 2015  15 45  -14.4470 18037.5 -13518.0 -36.8493 22540.8
 31 03 2015  15 46  -14.4461 18037.7 -13518.2 -36.8494 22541.1
 31 03 2015  15 47  -14.4453 18037.9 -13518.3 -36.8492 22541.3
 31 03 2015  15 48  -14.4436 18038.9 -13518.1 -36.8473 22542.0
 31 03 2015  15 49  -14.4422 18039.4 -13518.3 -36.8470 22542.5
 31 03 2015  15 50  -14.4402 18039.3 -13518.3 -36.8472 22542.4
 31 03 2015  15 51  -14.4383 18038.8 -13518.3 -36.8480 22542.0
 31 03 2015  15 52  -14.4364 18038.5 -13518.1 -36.8480 22541.6
 31 03 2015  15 53  -14.4356 18038.3 -13518.1 -36.8481 22541.5
 31 03 2015  15 54  -14.4354 18037.4 -13518.0 -36.8494 22540.7
 31 03 2015  15 55  -14.4347 18036.7 -13518.4 -36.8512 22540.4
 31 03 2015  15 56  -14.4344 18035.8 -13518.4 -36.8526 22539.6
 31 03 2015  15 57  -14.4339 18035.4 -13518.6 -36.8536 22539.4
 31 03 2015  15 58  -14.4329 18035.3 -13518.8 -36.8541 22539.5
 31 03 2015  15 59  -14.4320 18035.3 -13519.1 -36.8548 22539.7
 31 03 2015  16 00  -14.4313 18035.3 -13519.3 -36.8552 22539.8
 31 03 2015  16 01  -14.4307 18035.5 -13519.2 -36.8548 22539.9
 31 03 2015  16 02  -14.4295 18035.7 -13519.4 -36.8549 22540.2
 31 03 2015  16 03  -14.4285 18035.9 -13519.6 -36.8550 22540.5
 31 03 2015  16 04  -14.4280 18035.6 -13519.5 -36.8552 22540.2
 31 03 2015  16 05  -14.4273 18035.6 -13519.6 -36.8554 22540.2
 31 03 2015  16 06  -14.4269 18036.0 -13520.0 -36.8557 22540.8
 31 03 2015  16 07  -14.4250 18037.5 -13520.3 -36.8540 22542.2
 31 03 2015  16 08  -14.4232 18038.4 -13520.5 -36.8529 22543.1
 31 03 2015  16 09  -14.4213 18038.8 -13520.3 -36.8520 22543.2
 31 03 2015  16 10  -14.4197 18038.4 -13519.9 -36.8518 22542.6
 31 03 2015  16 11  -14.4181 18037.9 -13519.5 -36.8517 22542.1
 31 03 2015  16 12  -14.4180 18036.8 -13519.6 -36.8535 22541.2
 31 03 2015  16 13  -14.4175 18036.2 -13519.5 -36.8543 22540.7
 31 03 2015  16 14  -14.4176 18035.7 -13519.8 -36.8556 22540.4
 31 03 2015  16 15  -14.4171 18035.4 -13519.9 -36.8563 22540.2
 31 03 2015  16 16  -14.4170 18035.2 -13520.0 -36.8568 22540.2
 31 03 2015  16 17  -14.4165 18035.3 -13520.2 -36.8571 22540.4
 31 03 2015  16 18  -14.4153 18035.5 -13520.7 -36.8577 22540.8
 31 03 2015  16 19  -14.4142 18035.4 -13520.7 -36.8579 22540.7
 31 03 2015  16 20  -14.4132 18035.4 -13521.1 -36.8586 22541.0
 31 03 2015  16 21  -14.4121 18035.7 -13521.2 -36.8585 22541.3
 31 03 2015  16 22  -14.4110 18035.7 -13521.3 -36.8587 22541.4
 31 03 2015  16 23  -14.4108 18035.5 -13521.0 -36.8584 22541.0
 31 03 2015  16 24  -14.4111 18035.3 -13521.4 -36.8595 22541.1
 31 03 2015  16 25  -14.4102 18035.7 -13521.6 -36.8592 22541.5
 31 03 2015  16 26  -14.4086 18036.1 -13522.4 -36.8603 22542.3
 31 03 2015  16 27  -14.4072 18036.2 -13522.5 -36.8604 22542.5
 31 03 2015  16 28  -14.4061 18036.1 -13522.5 -36.8606 22542.4
 31 03 2015  16 29  -14.4052 18036.1 -13522.6 -36.8608 22542.4
 31 03 2015  16 30  -14.4040 18036.4 -13522.8 -36.8608 22542.8
 31 03 2015  16 31  -14.4032 18036.4 -13522.7 -36.8605 22542.7
 31 03 2015  16 32  -14.4030 18036.1 -13523.0 -36.8615 22542.6
 31 03 2015  16 33  -14.4028 18035.9 -13523.4 -36.8626 22542.7
 31 03 2015  16 34  -14.4020 18036.1 -13523.4 -36.8623 22542.9
 31 03 2015  16 35  -14.4012 18036.3 -13523.3 -36.8620 22543.0
 31 03 2015  16 36  -14.4004 18036.3 -13523.8 -36.8630 22543.3
 31 03 2015  16 37  -14.4004 18035.9 -13523.6 -36.8630 22542.9
 31 03 2015  16 38  -14.4003 18035.8 -13523.6 -36.8633 22542.8
 31 03 2015  16 39  -14.4002 18035.7 -13523.8 -36.8637 22542.8
 31 03 2015  16 40  -14.4000 18035.2 -13523.7 -36.8643 22542.4
 31 03 2015  16 41  -14.3996 18034.6 -13523.9 -36.8656 22542.0
 31 03 2015  16 42  -14.3993 18033.9 -13523.8 -36.8665 22541.3
 31 03 2015  16 43  -14.3993 18033.1 -13523.9 -36.8681 22540.8
 31 03 2015  16 44  -14.3993 18032.4 -13524.3 -36.8698 22540.5
 31 03 2015  16 45  -14.3996 18031.8 -13524.5 -36.8713 22540.1
 31 03 2015  16 46  -14.4000 18031.5 -13524.9 -36.8724 22540.1
 31 03 2015  16 47  -14.3999 18031.2 -13524.7 -36.8724 22539.8
 31 03 2015  16 48  -14.4003 18030.6 -13524.8 -36.8736 22539.4
 31 03 2015  16 49  -14.4012 18029.9 -13525.1 -36.8753 22539.0
 31 03 2015  16 50  -14.4017 18029.5 -13525.2 -36.8762 22538.7
 31 03 2015  16 51  -14.4012 18029.5 -13525.4 -36.8766 22538.8
 31 03 2015  16 52  -14.4009 18029.5 -13526.2 -36.8781 22539.3
 31 03 2015  16 53  -14.4011 18029.5 -13526.2 -36.8781 22539.3
 31 03 2015  16 54  -14.4004 18030.4 -13526.5 -36.8772 22540.2
 31 03 2015  16 55  -14.3995 18031.5 -13526.7 -36.8761 22541.2
 31 03 2015  16 56  -14.3975 18032.3 -13527.1 -36.8756 22542.1
 31 03 2015  16 57  -14.3964 18032.4 -13526.8 -36.8749 22542.0
 31 03 2015  16 58  -14.3953 18032.4 -13527.0 -36.8753 22542.1
 31 03 2015  16 59  -14.3944 18032.2 -13527.2 -36.8760 22542.0
 31 03 2015  17 00  -14.3946 18031.6 -13527.2 -36.8769 22541.6
 31 03 2015  17 01  -14.3947 18031.2 -13526.8 -36.8768 22541.0
 31 03 2015  17 02  -14.3953 18030.8 -13527.1 -36.8779 22540.9
 31 03 2015  17 03  -14.3955 18030.9 -13527.5 -36.8786 22541.2
 31 03 2015  17 04  -14.3957 18030.9 -13527.5 -36.8786 22541.3
 31 03 2015  17 05  -14.3949 18031.8 -13528.1 -36.8785 22542.3
 31 03 2015  17 06  -14.3933 18033.0 -13528.5 -36.8774 22543.4
 31 03 2015  17 07  -14.3921 18033.9 -13528.4 -36.8758 22544.2
 31 03 2015  17 08  -14.3903 18034.5 -13528.6 -36.8753 22544.8
 31 03 2015  17 09  -14.3888 18034.6 -13528.4 -36.8748 22544.8
 31 03 2015  17 10  -14.3889 18034.1 -13528.3 -36.8753 22544.2
 31 03 2015  17 11  -14.3893 18033.3 -13528.3 -36.8765 22543.6
 31 03 2015  17 12  -14.3918 18032.4 -13528.1 -36.8775 22542.8
 31 03 2015  17 13  -14.3914 18038.3 -13529.9 -36.8722 22548.6
 31 03 2015  17 14  -14.3878 18044.4 -13530.9 -36.8650 22554.1
 31 03 2015  17 15  -14.3818 18049.1 -13531.2 -36.8584 22558.0
 31 03 2015  17 16  -14.3761 18051.5 -13530.7 -36.8538 22559.6
 31 03 2015  17 17  -14.3730 18051.9 -13529.8 -36.8513 22559.4
 31 03 2015  17 18  -14.3705 18051.4 -13529.4 -36.8513 22558.7
 31 03 2015  17 19  -14.3695 18050.4 -13528.8 -36.8516 22557.6
 31 03 2015  17 20  -14.3708 18048.9 -13528.5 -36.8533 22556.2
 31 03 2015  17 21  -14.3723 18047.0 -13528.2 -36.8554 22554.5
 31 03 2015  17 22  -14.3738 18046.0 -13528.1 -36.8569 22553.7
 31 03 2015  17 23  -14.3776 18044.2 -13527.7 -36.8588 22552.0
 31 03 2015  17 24  -14.3802 18043.6 -13528.3 -36.8608 22551.9
 31 03 2015  17 25  -14.3792 18044.0 -13528.3 -36.8602 22552.1
 31 03 2015  17 26  -14.3815 18042.7 -13528.4 -36.8624 22551.2
 31 03 2015  17 27  -14.3829 18041.9 -13528.3 -36.8636 22550.5
 31 03 2015  17 28  -14.3846 18041.1 -13528.3 -36.8647 22549.8
 31 03 2015  17 29  -14.3858 18041.0 -13528.5 -36.8653 22549.9
 31 03 2015  17 30  -14.3876 18041.3 -13528.7 -36.8651 22550.3
 31 03 2015  17 31  -14.3882 18044.0 -13529.4 -36.8624 22552.9
 31 03 2015  17 32  -14.3860 18045.7 -13529.4 -36.8600 22554.2
 31 03 2015  17 33  -14.3818 18046.3 -13529.5 -36.8593 22554.7
 31 03 2015  17 34  -14.3779 18040.9 -13528.3 -36.8649 22549.7
 31 03 2015  17 35  -14.3892 18034.6 -13527.2 -36.8724 22544.0
 31 03 2015  17 36  -14.4066 18025.5 -13525.8 -36.8833 22535.9
 31 03 2015  17 37  -14.4187 18020.2 -13525.9 -36.8916 22531.7
 31 03 2015  17 38  -14.4222 18018.9 -13526.7 -36.8952 22531.1
 31 03 2015  17 39  -14.4242 18017.8 -13527.7 -36.8991 22530.9
 31 03 2015  17 40  -14.4247 18017.6 -13528.9 -36.9017 22531.4
 31 03 2015  17 41  -14.4251 18017.5 -13529.2 -36.9026 22531.5
 31 03 2015  17 42  -14.4251 18017.8 -13529.9 -36.9035 22532.1
 31 03 2015  17 43  -14.4232 18018.6 -13530.5 -36.9035 22533.2
 31 03 2015  17 44  -14.4203 18019.9 -13530.8 -36.9021 22534.5
 31 03 2015  17 45  -14.4187 18021.6 -13531.2 -36.9003 22536.0
 31 03 2015  17 46  -14.4127 18023.7 -13532.1 -36.8989 22538.2
 31 03 2015  17 47  -14.4087 18024.4 -13531.8 -36.8974 22538.6
 31 03 2015  17 48  -14.4089 18024.1 -13531.8 -36.8976 22538.4
 31 03 2015  17 49  -14.4081 18025.0 -13531.9 -36.8965 22539.1
 31 03 2015  17 50  -14.4061 18026.4 -13531.7 -36.8940 22540.1
 31 03 2015  17 51  -14.4028 18026.9 -13531.8 -36.8934 22540.6
 31 03 2015  17 52  -14.4025 18026.1 -13531.5 -36.8941 22539.8
 31 03 2015  17 53  -14.4026 18025.5 -13531.6 -36.8953 22539.4
 31 03 2015  17 54  -14.4036 18025.5 -13531.6 -36.8953 22539.4
 31 03 2015  17 55  -14.4025 18025.4 -13531.7 -36.8955 22539.4
 31 03 2015  17 56  -14.4043 18025.6 -13531.6 -36.8952 22539.4
 31 03 2015  17 57  -14.4029 18026.9 -13532.0 -36.8939 22540.7
 31 03 2015  17 58  -14.4007 18027.8 -13532.2 -36.8930 22541.5
 31 03 2015  17 59  -14.4000 18028.1 -13532.1 -36.8923 22541.7
 31 03 2015  18 00  -14.3976 18027.7 -13531.9 -36.8925 22541.3
 31 03 2015  18 01  -14.4030 18025.2 -13531.7 -36.8958 22539.2
 31 03 2015  18 02  -14.4060 18023.0 -13531.2 -36.8983 22537.2
 31 03 2015  18 03  -14.4109 18020.3 -13530.8 -36.9016 22534.7
 31 03 2015  18 04  -14.4144 18019.1 -13531.0 -36.9037 22533.8
 31 03 2015  18 05  -14.4157 18018.7 -13531.4 -36.9052 22533.9
 31 03 2015  18 06  -14.4140 18019.3 -13531.8 -36.9052 22534.5
 31 03 2015  18 07  -14.4125 18020.1 -13532.3 -36.9048 22535.5
 31 03 2015  18 08  -14.4126 18020.3 -13532.5 -36.9049 22535.8
 31 03 2015  18 09  -14.4122 18020.7 -13532.6 -36.9045 22536.1
 31 03 2015  18 10  -14.4120 18021.0 -13532.4 -36.9038 22536.3
 31 03 2015  18 11  -14.4112 18021.5 -13533.0 -36.9041 22537.0
 31 03 2015  18 12  -14.4110 18021.8 -13532.8 -36.9034 22537.1
 31 03 2015  18 13  -14.4125 18021.0 -13531.9 -36.9028 22535.9
 31 03 2015  18 14  -14.4151 18019.9 -13531.7 -36.9039 22534.9
 31 03 2015  18 15  -14.4175 18017.6 -13530.8 -36.9056 22532.6
 31 03 2015  18 16  -14.4223 18015.5 -13530.8 -36.9088 22530.9
 31 03 2015  18 17  -14.4266 18014.0 -13530.6 -36.9107 22529.5
 31 03 2015  18 18  -14.4290 18012.6 -13530.5 -36.9128 22528.4
 31 03 2015  18 19  -14.4338 18011.6 -13530.4 -36.9140 22527.6
 31 03 2015  18 20  -14.4367 18011.5 -13530.8 -36.9149 22527.7
 31 03 2015  18 21  -14.4401 18011.8 -13530.9 -36.9146 22528.0
 31 03 2015  18 22  -14.4387 18013.6 -13531.1 -36.9122 22529.6
 31 03 2015  18 23  -14.4384 18014.3 -13531.1 -36.9113 22530.1
 31 03 2015  18 24  -14.4380 18014.5 -13531.0 -36.9108 22530.2
 31 03 2015  18 25  -14.4385 18014.2 -13530.7 -36.9105 22529.8
 31 03 2015  18 26  -14.4380 18013.3 -13530.2 -36.9110 22528.7
 31 03 2015  18 27  -14.4397 18011.0 -13529.8 -36.9135 22526.7
 31 03 2015  18 28  -14.4465 18007.3 -13529.0 -36.9178 22523.3
 31 03 2015  18 29  -14.4550 18004.3 -13528.6 -36.9215 22520.6
 31 03 2015  18 30  -14.4616 18002.3 -13528.5 -36.9242 22519.0
 31 03 2015  18 31  -14.4645 18001.5 -13528.5 -36.9256 22518.3
 31 03 2015  18 32  -14.4656 18000.9 -13528.6 -36.9266 22517.9
 31 03 2015  18 33  -14.4682 18000.0 -13528.8 -36.9284 22517.3
 31 03 2015  18 34  -14.4694 17999.8 -13528.8 -36.9288 22517.1
 31 03 2015  18 35  -14.4703 17999.3 -13528.9 -36.9299 22516.8
 31 03 2015  18 36  -14.4709 17998.8 -13529.0 -36.9307 22516.4
 31 03 2015  18 37  -14.4718 17998.5 -13528.9 -36.9308 22516.1
 31 03 2015  18 38  -14.4720 17998.4 -13529.1 -36.9314 22516.2
 31 03 2015  18 39  -14.4729 17998.1 -13528.8 -36.9313 22515.7
 31 03 2015  18 40  -14.4741 17997.7 -13528.6 -36.9315 22515.3
 31 03 2015  18 41  -14.4758 17997.2 -13528.5 -36.9321 22514.9
 31 03 2015  18 42  -14.4762 17997.3 -13528.3 -36.9315 22514.8
 31 03 2015  18 43  -14.4765 17997.4 -13528.5 -36.9318 22515.0
 31 03 2015  18 44  -14.4759 17997.6 -13528.3 -36.9311 22515.1
 31 03 2015  18 45  -14.4764 17997.6 -13527.5 -36.9296 22514.6
 31 03 2015  18 46  -14.4773 17997.3 -13527.0 -36.9288 22514.1
 31 03 2015  18 47  -14.4780 17998.0 -13527.0 -36.9280 22514.6
 31 03 2015  18 48  -14.4779 17998.3 -13526.8 -36.9271 22514.7
 31 03 2015  18 49  -14.4773 17998.5 -13526.3 -36.9255 22514.6
 31 03 2015  18 50  -14.4768 17998.7 -13526.0 -36.9248 22514.6
 31 03 2015  18 52  -14.4765 17997.7 -13524.9 -36.9239 22513.1
 31 03 2015  18 53  -14.4754 17997.9 -13525.1 -36.9242 22513.4
 31 03 2015  18 54  -14.4747 17997.5 -13524.9 -36.9242 22512.9
 31 03 2015  18 55  -14.4731 17997.3 -13524.3 -36.9234 22512.4
 31 03 2015  18 56  -14.4721 17995.5 -13524.6 -36.9268 22511.1
 31 03 2015  18 57  -14.4703 17995.0 -13524.5 -36.9273 22510.7
 31 03 2015  18 58  -14.4723 17994.0 -13523.6 -36.9270 22509.4
 31 03 2015  18 59  -14.4716 17994.0 -13523.6 -36.9271 22509.4
 31 03 2015  19 00  -14.4715 17994.3 -13523.9 -36.9272 22509.8
 31 03 2015  19 01  -14.4690 17995.2 -13523.6 -36.9252 22510.3
 31 03 2015  19 02  -14.4692 17993.4 -13522.9 -36.9266 22508.4
 31 03 2015  19 03  -14.4691 17992.4 -13522.2 -36.9267 22507.3
 31 03 2015  19 04  -14.4725 17993.2 -13522.2 -36.9255 22507.9
 31 03 2015  19 05  -14.4687 17995.5 -13522.5 -36.9225 22509.9
 31 03 2015  19 06  -14.4687 17995.6 -13522.1 -36.9215 22509.8
 31 03 2015  19 07  -14.4671 17997.1 -13522.3 -36.9196 22511.0
 31 03 2015  19 08  -14.4673 17996.8 -13521.8 -36.9191 22510.6
 31 03 2015  19 09  -14.4629 17997.1 -13521.5 -36.9179 22510.6
 31 03 2015  19 10  -14.4663 17995.7 -13521.3 -36.9198 22509.3
 31 03 2015  19 11  -14.4686 17994.8 -13520.9 -36.9205 22508.4
 31 03 2015  19 12  -14.4688 17994.2 -13520.6 -36.9206 22507.7
 31 03 2015  19 13  -14.4695 17993.7 -13520.6 -36.9213 22507.3
 31 03 2015  19 14  -14.4695 17993.5 -13520.6 -36.9217 22507.2
 31 03 2015  19 15  -14.4694 17994.2 -13520.8 -36.9210 22507.8
 31 03 2015  19 16  -14.4675 17995.5 -13521.0 -36.9195 22509.0
 31 03 2015  19 17  -14.4641 17996.7 -13521.1 -36.9178 22510.0
 31 03 2015  19 18  -14.4604 17997.6 -13521.2 -36.9165 22510.8
 31 03 2015  19 19  -14.4577 17997.6 -13520.9 -36.9160 22510.6
 31 03 2015  19 20  -14.4572 17996.5 -13520.8 -36.9174 22509.7
 31 03 2015  19 21  -14.4567 17995.7 -13520.2 -36.9175 22508.7
 31 03 2015  19 22  -14.4571 17995.1 -13520.4 -36.9188 22508.3
 31 03 2015  19 23  -14.4560 17994.9 -13520.7 -36.9198 22508.4
 31 03 2015  19 24  -14.4556 17993.5 -13521.4 -36.9235 22507.6
 31 03 2015  19 25  -14.4545 17992.0 -13522.0 -36.9268 22506.9
 31 03 2015  19 26  -14.4532 17990.4 -13522.5 -36.9304 22505.8
 31 03 2015  19 27  -14.4537 17989.3 -13522.7 -36.9323 22505.0
 31 03 2015  19 28  -14.4537 17988.3 -13522.5 -36.9335 22504.2
 31 03 2015  19 29  -14.4531 17985.9 -13522.6 -36.9375 22502.3
 31 03 2015  19 30  -14.4586 17982.8 -13522.9 -36.9428 22500.0
 31 03 2015  19 31  -14.4609 17980.9 -13522.9 -36.9458 22498.5
 31 03 2015  19 32  -14.4646 17979.9 -13523.6 -36.9486 22498.1
 31 03 2015  19 33  -14.4589 17981.5 -13524.4 -36.9478 22499.9
 31 03 2015  19 34  -14.4537 17982.3 -13524.8 -36.9473 22500.7
 31 03 2015  19 35  -14.4537 17982.4 -13524.3 -36.9462 22500.5
 31 03 2015  19 36  -14.4542 17982.4 -13524.2 -36.9460 22500.4
 31 03 2015  19 37  -14.4528 17982.3 -13524.1 -36.9460 22500.4
 31 03 2015  19 38  -14.4540 17982.0 -13523.9 -36.9461 22500.0
 31 03 2015  19 39  -14.4540 17982.0 -13523.6 -36.9455 22499.8
 31 03 2015  19 40  -14.4558 17980.6 -13522.9 -36.9461 22498.2
 31 03 2015  19 41  -14.4615 17978.4 -13522.3 -36.9482 22496.2
 31 03 2015  19 42  -14.4653 17976.9 -13522.3 -36.9505 22494.9
 31 03 2015  19 43  -14.4667 17976.5 -13522.2 -36.9510 22494.6
 31 03 2015  19 44  -14.4673 17976.1 -13522.2 -36.9516 22494.2
 31 03 2015  19 45  -14.4667 17976.5 -13522.3 -36.9511 22494.6
 31 03 2015  19 46  -14.4694 17975.0 -13521.7 -36.9523 22493.1
 31 03 2015  19 47  -14.4686 17974.6 -13521.3 -36.9521 22492.5
 31 03 2015  19 48  -14.4693 17973.9 -13521.2 -36.9528 22491.9
 31 03 2015  19 49  -14.4692 17973.6 -13521.4 -36.9537 22491.7
 31 03 2015  19 50  -14.4692 17973.1 -13521.5 -36.9547 22491.4
 31 03 2015  19 51  -14.4677 17972.6 -13521.8 -36.9562 22491.2
 31 03 2015  19 52  -14.4673 17972.1 -13522.0 -36.9573 22490.9
 31 03 2015  19 53  -14.4668 17971.8 -13522.5 -36.9588 22491.0
 31 03 2015  19 54  -14.4683 17971.3 -13522.3 -36.9591 22490.5
 31 03 2015  19 55  -14.4693 17971.4 -13522.3 -36.9591 22490.5
 31 03 2015  19 56  -14.4681 17971.7 -13522.5 -36.9590 22490.9
 31 03 2015  19 57  -14.4653 17972.2 -13523.0 -36.9590 22491.6
 31 03 2015  19 58  -14.4621 17972.9 -13523.0 -36.9581 22492.2
 31 03 2015  19 59  -14.4614 17974.0 -13523.0 -36.9563 22493.0
 31 03 2015  20 00  -14.4624 17974.6 -13522.5 -36.9545 22493.1
 31 03 2015  20 01  -14.4622 17975.5 -13522.3 -36.9526 22493.8
 31 03 2015  20 02  -14.4588 17976.6 -13522.0 -36.9505 22494.5
 31 03 2015  20 03  -14.4571 17977.1 -13522.0 -36.9497 22494.9
 31 03 2015  20 04  -14.4535 17977.8 -13521.9 -36.9485 22495.4
 31 03 2015  20 05  -14.4529 17977.8 -13521.8 -36.9480 22495.3
 31 03 2015  20 06  -14.4518 17978.0 -13521.6 -36.9475 22495.4
 31 03 2015  20 07  -14.4500 17978.5 -13521.5 -36.9465 22495.7
 31 03 2015  20 08  -14.4490 17978.9 -13521.3 -36.9456 22495.9
 31 03 2015  20 09  -14.4480 17978.5 -13521.2 -36.9458 22495.5
 31 03 2015  20 10  -14.4473 17977.9 -13520.8 -36.9460 22494.8
 31 03 2015  20 11  -14.4468 17977.5 -13520.9 -36.9466 22494.6
 31 03 2015  20 12  -14.4469 17977.2 -13521.0 -36.9473 22494.4
 31 03 2015  20 13  -14.4465 17976.7 -13520.7 -36.9476 22493.8
 31 03 2015  20 14  -14.4466 17976.3 -13520.9 -36.9487 22493.6
 31 03 2015  20 15  -14.4467 17975.8 -13520.9 -36.9493 22493.2
 31 03 2015  20 16  -14.4467 17975.6 -13520.8 -36.9494 22493.0
 31 03 2015  20 17  -14.4469 17975.5 -13520.6 -36.9493 22492.8
 31 03 2015  20 18  -14.4459 17975.8 -13520.9 -36.9493 22493.2
 31 03 2015  20 19  -14.4451 17975.8 -13520.8 -36.9492 22493.1
 31 03 2015  20 20  -14.4445 17975.7 -13520.5 -36.9486 22492.9
 31 03 2015  20 21  -14.4437 17975.7 -13520.6 -36.9490 22492.9
 31 03 2015  20 22  -14.4425 17975.9 -13521.0 -36.9495 22493.3
 31 03 2015  20 23  -14.4423 17975.6 -13520.9 -36.9497 22493.0
 31 03 2015  20 24  -14.4421 17975.4 -13520.8 -36.9499 22492.8
 31 03 2015  20 25  -14.4426 17975.2 -13520.6 -36.9498 22492.5
 31 03 2015  20 26  -14.4424 17975.1 -13520.4 -36.9495 22492.3
 31 03 2015  20 27  -14.4420 17975.1 -13520.4 -36.9494 22492.3
 31 03 2015  20 28  -14.4415 17975.1 -13520.4 -36.9494 22492.4
 31 03 2015  20 29  -14.4406 17975.2 -13520.2 -36.9488 22492.3
 31 03 2015  20 30  -14.4396 17975.2 -13520.1 -36.9487 22492.2
 31 03 2015  20 31  -14.4392 17975.0 -13520.1 -36.9489 22492.1
 31 03 2015  20 32  -14.4386 17974.9 -13520.1 -36.9490 22492.0
 31 03 2015  20 33  -14.4378 17975.0 -13520.0 -36.9489 22492.0
 31 03 2015  20 34  -14.4372 17974.9 -13520.2 -36.9493 22492.1
 31 03 2015  20 35  -14.4359 17974.9 -13520.1 -36.9492 22492.0
 31 03 2015  20 36  -14.4349 17974.8 -13520.1 -36.9494 22491.9
 31 03 2015  20 37  -14.4343 17974.6 -13520.1 -36.9497 22491.8
 31 03 2015  20 38  -14.4340 17974.3 -13520.0 -36.9499 22491.4
 31 03 2015  20 39  -14.4329 17974.0 -13520.2 -36.9508 22491.4
 31 03 2015  20 40  -14.4327 17973.8 -13520.2 -36.9511 22491.2
 31 03 2015  20 41  -14.4319 17973.6 -13520.5 -36.9520 22491.2
 31 03 2015  20 42  -14.4308 17973.5 -13520.8 -36.9526 22491.3
 31 03 2015  20 43  -14.4299 17973.6 -13520.6 -36.9522 22491.3
 31 03 2015  20 44  -14.4295 17973.6 -13521.0 -36.9529 22491.5
 31 03 2015  20 45  -14.4288 17973.7 -13520.9 -36.9526 22491.5
 31 03 2015  20 46  -14.4287 17973.7 -13521.2 -36.9533 22491.7
 31 03 2015  20 47  -14.4283 17973.6 -13521.2 -36.9534 22491.6
 31 03 2015  20 48  -14.4280 17973.7 -13521.2 -36.9533 22491.7
 31 03 2015  20 49  -14.4272 17973.7 -13521.3 -36.9535 22491.8
 31 03 2015  20 50  -14.4273 17973.3 -13521.1 -36.9535 22491.3
 31 03 2015  20 51  -14.4268 17973.1 -13521.3 -36.9543 22491.3
 31 03 2015  20 52  -14.4265 17973.0 -13521.4 -36.9546 22491.2
 31 03 2015  20 53  -14.4258 17972.9 -13521.5 -36.9550 22491.3
 31 03 2015  20 54  -14.4255 17972.7 -13521.5 -36.9553 22491.0
 31 03 2015  20 55  -14.4252 17972.3 -13521.2 -36.9554 22490.6
 31 03 2015  20 56  -14.4252 17971.9 -13521.6 -36.9567 22490.5
 31 03 2015  20 57  -14.4255 17971.5 -13521.5 -36.9572 22490.1
 31 03 2015  20 58  -14.4257 17971.0 -13521.4 -36.9578 22489.7
 31 03 2015  20 59  -14.4256 17970.8 -13521.7 -36.9586 22489.6
 31 03 2015  21 00  -14.4249 17970.7 -13521.8 -36.9590 22489.7
 31 03 2015  21 01  -14.4244 17970.4 -13521.8 -36.9595 22489.4
 31 03 2015  21 02  -14.4236 17970.4 -13522.0 -36.9599 22489.6
 31 03 2015  21 03  -14.4233 17970.3 -13522.2 -36.9604 22489.6
 31 03 2015  21 04  -14.4231 17970.2 -13522.2 -36.9607 22489.5
 31 03 2015  21 05  -14.4225 17970.2 -13522.3 -36.9609 22489.5
 31 03 2015  21 06  -14.4221 17970.2 -13522.4 -36.9610 22489.6
 31 03 2015  21 07  -14.4218 17970.2 -13522.6 -36.9615 22489.7
 31 03 2015  21 08  -14.4209 17970.3 -13522.7 -36.9615 22489.9
 31 03 2015  21 09  -14.4206 17970.3 -13522.8 -36.9617 22489.9
 31 03 2015  21 10  -14.4197 17970.3 -13522.7 -36.9613 22489.9
 31 03 2015  21 11  -14.4190 17970.8 -13523.1 -36.9615 22490.5
 31 03 2015  21 12  -14.4183 17970.9 -13523.0 -36.9612 22490.5
 31 03 2015  21 13  -14.4179 17970.9 -13523.1 -36.9613 22490.6
 31 03 2015  21 14  -14.4183 17970.6 -13523.1 -36.9619 22490.3
 31 03 2015  21 15  -14.4189 17970.1 -13522.9 -36.9621 22489.8
 31 03 2015  21 16  -14.4187 17970.0 -13523.1 -36.9626 22489.9
 31 03 2015  21 17  -14.4179 17970.1 -13523.4 -36.9631 22490.2
 31 03 2015  21 18  -14.4175 17970.1 -13523.4 -36.9631 22490.1
 31 03 2015  21 19  -14.4178 17970.0 -13523.4 -36.9634 22490.1
 31 03 2015  21 20  -14.4169 17970.2 -13523.7 -36.9637 22490.4
 31 03 2015  21 21  -14.4166 17970.2 -13523.7 -36.9636 22490.4
 31 03 2015  21 22  -14.4163 17970.3 -13523.8 -36.9637 22490.5
 31 03 2015  21 23  -14.4159 17970.3 -13524.1 -36.9643 22490.7
 31 03 2015  21 24  -14.4158 17970.4 -13524.1 -36.9642 22490.9
 31 03 2015  21 25  -14.4156 17970.5 -13524.4 -36.9645 22491.1
 31 03 2015  21 26  -14.4150 17971.0 -13524.4 -36.9639 22491.5
 31 03 2015  21 27  -14.4139 17971.6 -13524.7 -36.9635 22492.1
 31 03 2015  21 28  -14.4134 17971.4 -13524.6 -36.9636 22491.9
 31 03 2015  21 29  -14.4141 17970.3 -13524.5 -36.9652 22491.0
 31 03 2015  21 30  -14.4157 17969.9 -13524.5 -36.9659 22490.6
 31 03 2015  21 31  -14.4164 17969.6 -13524.7 -36.9667 22490.5
 31 03 2015  21 32  -14.4170 17969.0 -13524.9 -36.9679 22490.2
 31 03 2015  21 33  -14.4171 17969.0 -13525.1 -36.9684 22490.3
 31 03 2015  21 34  -14.4172 17968.6 -13525.2 -36.9692 22490.0
 31 03 2015  21 35  -14.4166 17968.2 -13525.2 -36.9697 22489.8
 31 03 2015  21 36  -14.4162 17968.0 -13525.5 -36.9708 22489.7
 31 03 2015  21 37  -14.4159 17967.6 -13525.7 -36.9716 22489.5
 31 03 2015  21 38  -14.4155 17967.6 -13525.7 -36.9717 22489.5
 31 03 2015  21 39  -14.4150 17967.7 -13525.8 -36.9719 22489.7
 31 03 2015  21 40  -14.4145 17967.9 -13526.2 -36.9723 22490.1
 31 03 2015  21 41  -14.4135 17968.0 -13526.4 -36.9725 22490.2
 31 03 2015  21 42  -14.4127 17968.1 -13526.5 -36.9726 22490.5
 31 03 2015  21 43  -14.4119 17968.3 -13526.6 -36.9725 22490.6
 31 03 2015  21 44  -14.4118 17968.1 -13526.7 -36.9729 22490.5
 31 03 2015  21 45  -14.4117 17968.3 -13527.1 -36.9735 22490.9
 31 03 2015  21 46  -14.4116 17968.4 -13527.0 -36.9731 22490.9
 31 03 2015  21 47  -14.4118 17968.4 -13527.2 -36.9735 22491.0
 31 03 2015  21 48  -14.4121 17968.3 -13527.1 -36.9734 22491.0
 31 03 2015  21 49  -14.4118 17968.4 -13527.6 -36.9743 22491.3
 31 03 2015  21 50  -14.4114 17968.6 -13527.6 -36.9741 22491.5
 31 03 2015  21 51  -14.4114 17968.7 -13527.5 -36.9736 22491.5
 31 03 2015  21 52  -14.4105 17969.8 -13528.0 -36.9730 22492.7
 31 03 2015  21 53  -14.4080 17971.1 -13528.4 -36.9718 22494.0
 31 03 2015  21 54  -14.4058 17972.5 -13528.3 -36.9694 22495.0
 31 03 2015  21 55  -14.4040 17973.8 -13528.5 -36.9680 22496.1
 31 03 2015  21 56  -14.4034 17974.6 -13528.3 -36.9664 22496.7
 31 03 2015  21 57  -14.4036 17975.1 -13528.2 -36.9653 22497.1
 31 03 2015  21 58  -14.4035 17975.8 -13528.5 -36.9647 22497.8
 31 03 2015  21 59  -14.4038 17976.3 -13528.3 -36.9636 22498.0
 31 03 2015  22 00  -14.4041 17976.2 -13528.2 -36.9635 22497.9
 31 03 2015  22 01  -14.4050 17975.7 -13528.1 -36.9642 22497.5
 31 03 2015  22 02  -14.4066 17975.0 -13528.0 -36.9650 22496.9
 31 03 2015  22 03  -14.4080 17974.3 -13528.0 -36.9661 22496.3
 31 03 2015  22 04  -14.4088 17973.7 -13528.1 -36.9672 22495.9
 31 03 2015  22 05  -14.4094 17973.4 -13528.3 -36.9681 22495.7
 31 03 2015  22 06  -14.4097 17973.4 -13528.5 -36.9686 22495.9
 31 03 2015  22 07  -14.4096 17973.6 -13528.7 -36.9688 22496.1
 31 03 2015  22 08  -14.4092 17973.9 -13529.0 -36.9687 22496.5
 31 03 2015  22 09  -14.4095 17973.7 -13528.8 -36.9686 22496.2
 31 03 2015  22 10  -14.4097 17973.2 -13528.8 -36.9694 22495.8
 31 03 2015  22 11  -14.4101 17972.6 -13528.9 -36.9704 22495.5
 31 03 2015  22 12  -14.4107 17972.2 -13528.9 -36.9713 22495.1
 31 03 2015  22 13  -14.4107 17972.0 -13529.1 -36.9719 22495.1
 31 03 2015  22 14  -14.4107 17971.9 -13529.1 -36.9720 22495.0
 31 03 2015  22 15  -14.4104 17972.0 -13529.4 -36.9725 22495.3
 31 03 2015  22 16  -14.4102 17972.1 -13529.5 -36.9725 22495.5
 31 03 2015  22 17  -14.4098 17972.5 -13529.6 -36.9722 22495.8
 31 03 2015  22 18  -14.4099 17972.3 -13529.7 -36.9726 22495.7
 31 03 2015  22 19  -14.4100 17972.1 -13529.7 -36.9729 22495.5
 31 03 2015  22 20  -14.4099 17972.0 -13529.7 -36.9732 22495.5
 31 03 2015  22 21  -14.4098 17972.0 -13529.9 -36.9736 22495.6
 31 03 2015  22 22  -14.4095 17972.2 -13530.2 -36.9740 22495.9
 31 03 2015  22 23  -14.4094 17972.1 -13530.2 -36.9740 22495.9
 31 03 2015  22 24  -14.4094 17972.0 -13530.0 -36.9737 22495.7
 31 03 2015  22 25  -14.4095 17971.9 -13530.2 -36.9742 22495.7
 31 03 2015  22 26  -14.4092 17972.0 -13530.2 -36.9742 22495.8
 31 03 2015  22 27  -14.4096 17971.9 -13530.3 -36.9745 22495.8
 31 03 2015  22 28  -14.4097 17971.9 -13530.4 -36.9748 22495.8
 31 03 2015  22 29  -14.4099 17971.9 -13530.5 -36.9749 22495.9
 31 03 2015  22 30  -14.4099 17972.2 -13530.8 -36.9751 22496.3
 31 03 2015  22 31  -14.4097 17972.4 -13530.8 -36.9748 22496.4
 31 03 2015  22 32  -14.4096 17972.6 -13530.9 -36.9746 22496.6
 31 03 2015  22 33  -14.4099 17972.6 -13531.0 -36.9748 22496.8
 31 03 2015  22 34  -14.4101 17972.6 -13531.1 -36.9750 22496.8
 31 03 2015  22 35  -14.4103 17972.8 -13531.1 -36.9747 22497.0
 31 03 2015  22 36  -14.4099 17973.3 -13531.2 -36.9742 22497.4
 31 03 2015  22 37  -14.4098 17973.9 -13531.5 -36.9739 22498.1
 31 03 2015  22 38  -14.4095 17974.9 -13531.8 -36.9730 22499.0
 31 03 2015  22 39  -14.4090 17975.6 -13531.7 -36.9717 22499.6
 31 03 2015  22 40  -14.4087 17976.0 -13531.7 -36.9711 22499.8
 31 03 2015  22 41  -14.4090 17975.8 -13531.5 -36.9709 22499.6
 31 03 2015  22 42  -14.4093 17975.7 -13531.3 -36.9707 22499.4
 31 03 2015  22 43  -14.4098 17975.4 -13531.4 -36.9712 22499.2
 31 03 2015  22 44  -14.4101 17975.4 -13531.4 -36.9713 22499.2
 31 03 2015  22 45  -14.4105 17975.3 -13531.5 -36.9717 22499.2
 31 03 2015  22 46  -14.4111 17975.1 -13531.3 -36.9717 22498.9
 31 03 2015  22 47  -14.4115 17974.9 -13531.4 -36.9723 22498.8
 31 03 2015  22 48  -14.4120 17974.7 -13531.3 -36.9722 22498.6
 31 03 2015  22 49  -14.4126 17974.4 -13531.4 -36.9729 22498.4
 31 03 2015  22 50  -14.4131 17974.3 -13531.6 -36.9735 22498.4
 31 03 2015  22 51  -14.4133 17974.4 -13531.6 -36.9733 22498.5
 31 03 2015  22 52  -14.4139 17974.0 -13531.8 -36.9742 22498.3
 31 03 2015  22 53  -14.4144 17974.0 -13531.5 -36.9738 22498.1
 31 03 2015  22 54  -14.4148 17973.9 -13531.7 -36.9742 22498.2
 31 03 2015  22 55  -14.4152 17973.8 -13531.8 -36.9745 22498.2
 31 03 2015  22 56  -14.4154 17974.0 -13531.7 -36.9742 22498.2
 31 03 2015  22 57  -14.4151 17974.2 -13532.0 -36.9744 22498.6
 31 03 2015  22 58  -14.4150 17974.7 -13532.0 -36.9737 22499.0
 31 03 2015  22 59  -14.4153 17974.9 -13532.1 -36.9735 22499.1
 31 03 2015  23 00  -14.4156 17975.0 -13531.9 -36.9730 22499.1
 31 03 2015  23 01  -14.4158 17975.0 -13532.0 -36.9732 22499.3
 31 03 2015  23 02  -14.4161 17975.1 -13531.9 -36.9727 22499.3
 31 03 2015  23 03  -14.4168 17975.0 -13531.7 -36.9726 22499.0
 31 03 2015  23 04  -14.4173 17974.6 -13531.9 -36.9735 22498.9
 31 03 2015  23 05  -14.4178 17974.5 -13531.5 -36.9730 22498.6
 31 03 2015  23 06  -14.4182 17974.4 -13531.7 -36.9736 22498.5
 31 03 2015  23 07  -14.4184 17974.3 -13531.8 -36.9739 22498.6
 31 03 2015  23 08  -14.4190 17974.0 -13531.8 -36.9743 22498.3
 31 03 2015  23 09  -14.4194 17973.7 -13531.9 -36.9751 22498.1
 31 03 2015  23 10  -14.4193 17974.4 -13531.8 -36.9737 22498.6
 31 03 2015  23 11  -14.4182 17975.8 -13532.5 -36.9729 22500.2
 31 03 2015  23 12  -14.4175 17976.6 -13532.1 -36.9710 22500.6
 31 03 2015  23 13  -14.4172 17977.0 -13532.1 -36.9704 22500.9
 31 03 2015  23 14  -14.4170 17977.3 -13532.2 -36.9702 22501.2
 31 03 2015  23 15  -14.4173 17977.2 -13532.2 -36.9702 22501.1
 31 03 2015  23 16  -14.4176 17977.0 -13531.8 -36.9697 22500.8
 31 03 2015  23 17  -14.4182 17976.8 -13531.7 -36.9699 22500.5
 31 03 2015  23 18  -14.4179 17977.2 -13532.0 -36.9698 22501.0
 31 03 2015  23 19  -14.4176 17977.8 -13532.2 -36.9693 22501.6
 31 03 2015  23 20  -14.4175 17978.3 -13531.9 -36.9680 22501.8
 31 03 2015  23 21  -14.4175 17978.5 -13531.6 -36.9671 22501.8
 31 03 2015  23 22  -14.4178 17978.2 -13531.7 -36.9677 22501.7
 31 03 2015  23 23  -14.4181 17978.2 -13531.5 -36.9673 22501.4
 31 03 2015  23 24  -14.4182 17978.1 -13531.6 -36.9676 22501.5
 31 03 2015  23 25  -14.4177 17978.4 -13531.7 -36.9674 22501.8
 31 03 2015  23 26  -14.4175 17978.8 -13531.7 -36.9667 22502.1
 31 03 2015  23 27  -14.4174 17979.0 -13531.6 -36.9661 22502.2
 31 03 2015  23 28  -14.4176 17979.2 -13531.6 -36.9659 22502.3
 31 03 2015  23 29  -14.4174 17979.7 -13531.6 -36.9651 22502.8
 31 03 2015  23 30  -14.4176 17980.0 -13531.7 -36.9648 22503.0
 31 03 2015  23 31  -14.4181 17979.9 -13531.3 -36.9643 22502.7
 31 03 2015  23 32  -14.4188 17979.4 -13531.5 -36.9655 22502.5
 31 03 2015  23 33  -14.4190 17979.1 -13531.3 -36.9655 22502.1
 31 03 2015  23 34  -14.4192 17979.0 -13531.2 -36.9655 22501.9
 31 03 2015  23 35  -14.4194 17978.9 -13531.4 -36.9660 22502.0
 31 03 2015  23 36  -14.4193 17979.3 -13531.2 -36.9649 22502.2
 31 03 2015  23 37  -14.4192 17979.7 -13531.4 -36.9649 22502.6
 31 03 2015  23 38  -14.4192 17979.9 -13531.5 -36.9647 22502.8
 31 03 2015  23 39  -14.4195 17979.8 -13531.3 -36.9645 22502.6
 31 03 2015  23 40  -14.4199 17979.5 -13531.4 -36.9651 22502.5
 31 03 2015  23 41  -14.4203 17979.3 -13531.4 -36.9654 22502.3
 31 03 2015  23 42  -14.4209 17978.9 -13531.2 -36.9656 22501.9
 31 03 2015  23 43  -14.4212 17978.7 -13531.0 -36.9655 22501.6
 31 03 2015  23 44  -14.4216 17978.4 -13531.3 -36.9665 22501.6
 31 03 2015  23 45  -14.4223 17978.1 -13531.0 -36.9664 22501.1
 31 03 2015  23 46  -14.4241 17976.8 -13530.7 -36.9677 22499.9
 31 03 2015  23 47  -14.4263 17974.4 -13530.6 -36.9711 22497.9
 31 03 2015  23 48  -14.4281 17972.3 -13530.5 -36.9744 22496.2
 31 03 2015  23 49  -14.4282 17972.2 -13530.8 -36.9750 22496.3
 31 03 2015  23 50  -14.4274 17973.3 -13531.5 -36.9748 22497.6
 31 03 2015  23 51  -14.4263 17974.6 -13531.9 -36.9735 22498.9
 31 03 2015  23 52  -14.4252 17976.0 -13532.1 -36.9719 22500.1
 31 03 2015  23 53  -14.4235 17977.7 -13531.9 -36.9688 22501.3
