SAO MARTINHO DA SERRA EMBRACE-06 <297> 1 Min. Reported data

 DD MM YYYY  HH MM   D(Deg)  H(nT)   Z(nT)   I(Deg)   F(nT)

 24 10 2015  00 00  -14.5368 17932.7 -13558.7 -37.0924 22481.5
 24 10 2015  00 01  -14.5355 17932.5 -13558.6 -37.0925 22481.3
 24 10 2015  00 02  -14.5340 17932.6 -13558.7 -37.0926 22481.5
 24 10 2015  00 03  -14.5332 17932.7 -13558.7 -37.0925 22481.5
 24 10 2015  00 04  -14.5329 17932.5 -13558.7 -37.0927 22481.4
 24 10 2015  00 05  -14.5321 17932.6 -13559.0 -37.0931 22481.6
 24 10 2015  00 06  -14.5312 17932.6 -13559.0 -37.0931 22481.7
 24 10 2015  00 07  -14.5309 17932.7 -13559.0 -37.0931 22481.7
 24 10 2015  00 08  -14.5303 17933.1 -13559.0 -37.0924 22482.0
 24 10 2015  00 09  -14.5298 17932.7 -13558.9 -37.0929 22481.7
 24 10 2015  00 10  -14.5297 17931.4 -13558.9 -37.0947 22480.6
 24 10 2015  00 11  -14.5297 17931.0 -13558.8 -37.0953 22480.3
 24 10 2015  00 12  -14.5294 17931.0 -13559.3 -37.0962 22480.5
 24 10 2015  00 13  -14.5289 17930.7 -13559.1 -37.0963 22480.2
 24 10 2015  00 14  -14.5284 17930.7 -13559.6 -37.0972 22480.5
 24 10 2015  00 15  -14.5283 17930.7 -13559.4 -37.0969 22480.3
 24 10 2015  00 16  -14.5279 17930.8 -13559.7 -37.0973 22480.6
 24 10 2015  00 17  -14.5274 17930.7 -13559.6 -37.0974 22480.5
 24 10 2015  00 18  -14.5272 17930.5 -13559.4 -37.0972 22480.2
 24 10 2015  00 19  -14.5270 17930.6 -13559.5 -37.0972 22480.3
 24 10 2015  00 20  -14.5266 17931.4 -13559.8 -37.0966 22481.1
 24 10 2015  00 21  -14.5262 17931.6 -13559.8 -37.0962 22481.4
 24 10 2015  00 22  -14.5259 17932.1 -13559.9 -37.0957 22481.8
 24 10 2015  00 23  -14.5259 17932.3 -13559.6 -37.0950 22481.8
 24 10 2015  00 24  -14.5258 17932.3 -13559.7 -37.0951 22481.9
 24 10 2015  00 25  -14.5257 17932.3 -13559.7 -37.0950 22481.8
 24 10 2015  00 26  -14.5255 17932.4 -13559.7 -37.0949 22482.0
 24 10 2015  00 27  -14.5252 17932.5 -13559.6 -37.0945 22481.9
 24 10 2015  00 28  -14.5251 17932.6 -13559.6 -37.0943 22482.0
 24 10 2015  00 29  -14.5249 17932.9 -13559.5 -37.0937 22482.2
 24 10 2015  00 30  -14.5246 17933.2 -13559.5 -37.0933 22482.5
 24 10 2015  00 31  -14.5243 17933.3 -13559.7 -37.0935 22482.6
 24 10 2015  00 32  -14.5240 17933.5 -13559.7 -37.0933 22482.8
 24 10 2015  00 33  -14.5242 17933.5 -13559.8 -37.0933 22482.9
 24 10 2015  00 34  -14.5244 17933.4 -13559.4 -37.0927 22482.6
 24 10 2015  00 35  -14.5244 17933.3 -13559.4 -37.0930 22482.4
 24 10 2015  00 36  -14.5244 17933.2 -13559.3 -37.0928 22482.3
 24 10 2015  00 37  -14.5242 17933.1 -13559.3 -37.0930 22482.2
 24 10 2015  00 38  -14.5240 17933.1 -13559.5 -37.0933 22482.4
 24 10 2015  00 39  -14.5240 17933.3 -13559.3 -37.0928 22482.4
 24 10 2015  00 40  -14.5240 17933.4 -13559.2 -37.0924 22482.4
 24 10 2015  00 41  -14.5235 17933.8 -13559.4 -37.0921 22482.8
 24 10 2015  00 42  -14.5230 17934.4 -13559.6 -37.0917 22483.4
 24 10 2015  00 43  -14.5224 17935.1 -13559.6 -37.0906 22484.0
 24 10 2015  00 44  -14.5221 17935.6 -13559.6 -37.0897 22484.4
 24 10 2015  00 45  -14.5217 17936.2 -13559.6 -37.0888 22484.8
 24 10 2015  00 46  -14.5211 17936.6 -13559.4 -37.0879 22485.0
 24 10 2015  00 47  -14.5204 17936.9 -13559.4 -37.0873 22485.3
 24 10 2015  00 48  -14.5200 17937.7 -13559.4 -37.0863 22486.0
 24 10 2015  00 49  -14.5195 17938.1 -13559.4 -37.0855 22486.2
 24 10 2015  00 50  -14.5193 17938.3 -13559.4 -37.0852 22486.4
 24 10 2015  00 51  -14.5190 17938.4 -13559.2 -37.0846 22486.4
 24 10 2015  00 52  -14.5190 17938.5 -13558.9 -37.0839 22486.3
 24 10 2015  00 53  -14.5191 17938.4 -13558.9 -37.0839 22486.2
 24 10 2015  00 54  -14.5190 17938.2 -13558.5 -37.0835 22485.8
 24 10 2015  00 55  -14.5187 17938.0 -13558.8 -37.0844 22485.8
 24 10 2015  00 56  -14.5186 17937.5 -13558.7 -37.0850 22485.4
 24 10 2015  00 57  -14.5181 17937.2 -13558.8 -37.0856 22485.2
 24 10 2015  00 58  -14.5175 17937.0 -13558.6 -37.0858 22484.9
 24 10 2015  00 59  -14.5168 17936.9 -13558.9 -37.0863 22485.0
 24 10 2015  01 00  -14.5165 17936.7 -13558.9 -37.0868 22484.9
 24 10 2015  01 01  -14.5163 17936.5 -13558.9 -37.0868 22484.7
 24 10 2015  01 02  -14.5162 17936.6 -13558.7 -37.0865 22484.7
 24 10 2015  01 03  -14.5164 17936.0 -13558.7 -37.0873 22484.2
 24 10 2015  01 04  -14.5167 17935.9 -13558.8 -37.0878 22484.1
 24 10 2015  01 05  -14.5169 17935.7 -13558.8 -37.0880 22484.0
 24 10 2015  01 06  -14.5176 17935.5 -13558.7 -37.0882 22483.8
 24 10 2015  01 07  -14.5181 17935.1 -13558.9 -37.0890 22483.6
 24 10 2015  01 08  -14.5185 17934.6 -13558.8 -37.0896 22483.1
 24 10 2015  01 09  -14.5187 17934.2 -13558.7 -37.0901 22482.7
 24 10 2015  01 10  -14.5192 17934.2 -13559.0 -37.0907 22482.9
 24 10 2015  01 11  -14.5193 17933.4 -13558.9 -37.0916 22482.2
 24 10 2015  01 12  -14.5195 17933.0 -13558.5 -37.0915 22481.7
 24 10 2015  01 13  -14.5195 17932.8 -13559.0 -37.0929 22481.8
 24 10 2015  01 14  -14.5201 17932.5 -13559.0 -37.0934 22481.6
 24 10 2015  01 15  -14.5208 17932.4 -13559.2 -37.0939 22481.6
 24 10 2015  01 16  -14.5214 17931.9 -13558.9 -37.0942 22481.0
 24 10 2015  01 17  -14.5220 17931.6 -13559.1 -37.0950 22480.9
 24 10 2015  01 18  -14.5225 17931.2 -13559.3 -37.0959 22480.7
 24 10 2015  01 19  -14.5231 17931.0 -13559.3 -37.0961 22480.6
 24 10 2015  01 20  -14.5235 17930.5 -13559.3 -37.0970 22480.2
 24 10 2015  01 21  -14.5240 17930.5 -13559.4 -37.0973 22480.2
 24 10 2015  01 22  -14.5242 17929.6 -13559.4 -37.0986 22479.5
 24 10 2015  01 23  -14.5252 17928.7 -13559.3 -37.0999 22478.7
 24 10 2015  01 24  -14.5255 17928.4 -13559.4 -37.1005 22478.6
 24 10 2015  01 25  -14.5256 17927.9 -13559.3 -37.1011 22478.1
 24 10 2015  01 26  -14.5253 17928.3 -13559.7 -37.1013 22478.6
 24 10 2015  01 27  -14.5245 17928.8 -13560.0 -37.1009 22479.2
 24 10 2015  01 28  -14.5245 17929.3 -13560.0 -37.1002 22479.6
 24 10 2015  01 29  -14.5244 17929.5 -13560.0 -37.1000 22479.7
 24 10 2015  01 30  -14.5243 17929.3 -13560.0 -37.1002 22479.7
 24 10 2015  01 31  -14.5244 17929.1 -13559.9 -37.1005 22479.4
 24 10 2015  01 32  -14.5250 17928.5 -13559.9 -37.1014 22478.9
 24 10 2015  01 33  -14.5256 17927.8 -13559.7 -37.1019 22478.2
 24 10 2015  01 34  -14.5258 17927.4 -13559.8 -37.1027 22477.9
 24 10 2015  01 35  -14.5259 17927.4 -13560.0 -37.1031 22478.1
 24 10 2015  01 36  -14.5254 17928.1 -13560.2 -37.1025 22478.8
 24 10 2015  01 37  -14.5238 17928.9 -13560.3 -37.1015 22479.4
 24 10 2015  01 38  -14.5224 17929.5 -13560.5 -37.1010 22480.1
 24 10 2015  01 39  -14.5210 17930.4 -13560.7 -37.1001 22480.9
 24 10 2015  01 40  -14.5203 17931.0 -13560.8 -37.0993 22481.5
 24 10 2015  01 41  -14.5202 17931.3 -13560.6 -37.0983 22481.6
 24 10 2015  01 42  -14.5202 17931.4 -13560.4 -37.0978 22481.5
 24 10 2015  01 43  -14.5206 17931.4 -13560.4 -37.0979 22481.6
 24 10 2015  01 44  -14.5214 17931.6 -13560.1 -37.0970 22481.5
 24 10 2015  01 45  -14.5218 17931.6 -13560.1 -37.0970 22481.6
 24 10 2015  01 46  -14.5214 17931.5 -13560.0 -37.0969 22481.4
 24 10 2015  01 47  -14.5211 17931.4 -13560.0 -37.0971 22481.4
 24 10 2015  01 48  -14.5208 17931.2 -13559.9 -37.0972 22481.1
 24 10 2015  01 49  -14.5205 17931.4 -13560.2 -37.0975 22481.4
 24 10 2015  01 50  -14.5202 17931.8 -13560.1 -37.0967 22481.7
 24 10 2015  01 51  -14.5205 17932.0 -13560.1 -37.0964 22481.8
 24 10 2015  01 52  -14.5210 17931.9 -13560.0 -37.0963 22481.7
 24 10 2015  01 53  -14.5211 17931.8 -13559.9 -37.0963 22481.6
 24 10 2015  01 54  -14.5209 17932.0 -13560.0 -37.0961 22481.8
 24 10 2015  01 55  -14.5205 17932.1 -13559.8 -37.0956 22481.7
 24 10 2015  01 56  -14.5206 17932.0 -13559.7 -37.0956 22481.6
 24 10 2015  01 57  -14.5204 17932.2 -13559.7 -37.0952 22481.8
 24 10 2015  01 58  -14.5202 17932.5 -13559.9 -37.0950 22482.1
 24 10 2015  01 59  -14.5203 17932.7 -13559.8 -37.0947 22482.3
 24 10 2015  02 00  -14.5198 17932.9 -13559.8 -37.0943 22482.4
 24 10 2015  02 01  -14.5198 17933.1 -13559.8 -37.0941 22482.5
 24 10 2015  02 02  -14.5196 17933.4 -13559.6 -37.0933 22482.6
 24 10 2015  02 03  -14.5189 17933.6 -13559.8 -37.0933 22482.9
 24 10 2015  02 04  -14.5183 17933.8 -13559.7 -37.0927 22483.0
 24 10 2015  02 05  -14.5176 17934.1 -13559.9 -37.0927 22483.4
 24 10 2015  02 06  -14.5175 17934.2 -13559.8 -37.0924 22483.4
 24 10 2015  02 07  -14.5173 17934.6 -13560.0 -37.0921 22483.8
 24 10 2015  02 08  -14.5174 17934.5 -13559.9 -37.0919 22483.7
 24 10 2015  02 09  -14.5176 17934.7 -13559.9 -37.0918 22483.8
 24 10 2015  02 10  -14.5179 17934.6 -13559.8 -37.0917 22483.7
 24 10 2015  02 11  -14.5182 17934.7 -13559.7 -37.0914 22483.8
 24 10 2015  02 12  -14.5180 17934.8 -13559.7 -37.0911 22483.8
 24 10 2015  02 13  -14.5183 17934.9 -13559.6 -37.0908 22483.8
 24 10 2015  02 14  -14.5187 17934.8 -13559.7 -37.0911 22483.8
 24 10 2015  02 15  -14.5188 17934.7 -13559.7 -37.0913 22483.8
 24 10 2015  02 16  -14.5190 17934.6 -13559.6 -37.0912 22483.6
 24 10 2015  02 17  -14.5194 17934.5 -13559.8 -37.0920 22483.6
 24 10 2015  02 18  -14.5195 17934.4 -13559.8 -37.0919 22483.5
 24 10 2015  02 19  -14.5197 17934.6 -13559.9 -37.0919 22483.7
 24 10 2015  02 20  -14.5203 17934.5 -13559.8 -37.0918 22483.7
 24 10 2015  02 21  -14.5207 17934.4 -13560.0 -37.0923 22483.7
 24 10 2015  02 22  -14.5213 17934.2 -13559.9 -37.0925 22483.5
 24 10 2015  02 23  -14.5214 17934.0 -13559.9 -37.0928 22483.3
 24 10 2015  02 24  -14.5213 17933.6 -13559.9 -37.0935 22483.0
 24 10 2015  02 25  -14.5209 17933.5 -13560.0 -37.0940 22483.0
 24 10 2015  02 26  -14.5204 17933.6 -13560.3 -37.0942 22483.3
 24 10 2015  02 27  -14.5200 17934.1 -13560.5 -37.0939 22483.7
 24 10 2015  02 28  -14.5197 17934.4 -13560.8 -37.0939 22484.2
 24 10 2015  02 29  -14.5196 17934.5 -13560.4 -37.0931 22484.0
 24 10 2015  02 30  -14.5200 17934.4 -13560.2 -37.0928 22483.8
 24 10 2015  02 31  -14.5195 17934.8 -13560.9 -37.0936 22484.6
 24 10 2015  02 32  -14.5192 17935.2 -13561.1 -37.0936 22485.0
 24 10 2015  02 33  -14.5181 17935.5 -13561.2 -37.0931 22485.3
 24 10 2015  02 34  -14.5168 17935.9 -13561.3 -37.0927 22485.6
 24 10 2015  02 35  -14.5156 17936.3 -13561.3 -37.0921 22486.0
 24 10 2015  02 36  -14.5154 17936.4 -13561.3 -37.0920 22486.1
 24 10 2015  02 37  -14.5165 17936.1 -13561.3 -37.0924 22485.9
 24 10 2015  02 38  -14.5179 17935.8 -13561.2 -37.0927 22485.5
 24 10 2015  02 39  -14.5180 17935.7 -13561.3 -37.0930 22485.5
 24 10 2015  02 40  -14.5170 17936.2 -13561.4 -37.0924 22486.0
 24 10 2015  02 41  -14.5140 17937.0 -13561.6 -37.0917 22486.7
 24 10 2015  02 42  -14.5120 17936.9 -13561.4 -37.0914 22486.6
 24 10 2015  02 43  -14.5110 17937.1 -13561.3 -37.0909 22486.6
 24 10 2015  02 44  -14.5115 17936.4 -13561.1 -37.0916 22485.9
 24 10 2015  02 45  -14.5122 17935.6 -13561.0 -37.0927 22485.3
 24 10 2015  02 46  -14.5125 17934.8 -13560.9 -37.0935 22484.6
 24 10 2015  02 47  -14.5128 17934.3 -13560.8 -37.0942 22484.1
 24 10 2015  02 48  -14.5130 17934.0 -13560.7 -37.0946 22483.8
 24 10 2015  02 49  -14.5133 17933.7 -13560.7 -37.0949 22483.6
 24 10 2015  02 50  -14.5134 17933.7 -13561.0 -37.0955 22483.8
 24 10 2015  02 51  -14.5136 17933.7 -13561.1 -37.0957 22483.8
 24 10 2015  02 52  -14.5139 17933.7 -13561.0 -37.0955 22483.7
 24 10 2015  02 53  -14.5144 17933.8 -13561.1 -37.0956 22483.8
 24 10 2015  02 54  -14.5141 17934.2 -13561.1 -37.0950 22484.2
 24 10 2015  02 55  -14.5140 17934.9 -13561.4 -37.0944 22484.9
 24 10 2015  02 56  -14.5142 17936.1 -13561.5 -37.0929 22485.9
 24 10 2015  02 57  -14.5142 17937.7 -13561.6 -37.0907 22487.3
 24 10 2015  02 58  -14.5150 17938.6 -13561.6 -37.0893 22488.0
 24 10 2015  02 59  -14.5151 17939.5 -13561.5 -37.0877 22488.6
 24 10 2015  03 00  -14.5157 17939.0 -13561.1 -37.0876 22488.0
 24 10 2015  03 01  -14.5166 17938.1 -13560.6 -37.0880 22487.0
 24 10 2015  03 02  -14.5161 17939.0 -13561.0 -37.0874 22488.0
 24 10 2015  03 03  -14.5163 17938.4 -13560.5 -37.0874 22487.2
 24 10 2015  03 04  -14.5157 17938.5 -13560.6 -37.0873 22487.3
 24 10 2015  03 05  -14.5156 17937.9 -13560.3 -37.0877 22486.7
 24 10 2015  03 06  -14.5154 17937.6 -13560.3 -37.0881 22486.4
 24 10 2015  03 07  -14.5156 17937.2 -13560.3 -37.0888 22486.2
 24 10 2015  03 08  -14.5156 17937.2 -13560.2 -37.0886 22486.1
 24 10 2015  03 09  -14.5156 17937.4 -13560.3 -37.0884 22486.2
 24 10 2015  03 10  -14.5152 17937.5 -13560.4 -37.0884 22486.4
 24 10 2015  03 11  -14.5142 17938.0 -13560.5 -37.0879 22486.9
 24 10 2015  03 12  -14.5140 17938.1 -13560.5 -37.0878 22486.9
 24 10 2015  03 13  -14.5142 17937.5 -13560.4 -37.0884 22486.4
 24 10 2015  03 14  -14.5138 17937.3 -13560.2 -37.0882 22486.1
 24 10 2015  03 15  -14.5132 17937.4 -13560.2 -37.0883 22486.2
 24 10 2015  03 16  -14.5131 17937.3 -13560.3 -37.0887 22486.2
 24 10 2015  03 17  -14.5130 17937.3 -13560.3 -37.0886 22486.1
 24 10 2015  03 18  -14.5129 17937.1 -13560.2 -37.0887 22485.9
 24 10 2015  03 19  -14.5127 17937.0 -13560.2 -37.0889 22485.9
 24 10 2015  03 20  -14.5125 17936.7 -13560.2 -37.0893 22485.7
 24 10 2015  03 21  -14.5123 17936.5 -13560.1 -37.0894 22485.5
 24 10 2015  03 22  -14.5123 17936.2 -13560.0 -37.0897 22485.1
 24 10 2015  03 23  -14.5114 17936.0 -13560.1 -37.0901 22485.0
 24 10 2015  03 24  -14.5103 17936.4 -13560.2 -37.0896 22485.4
 24 10 2015  03 25  -14.5089 17937.3 -13560.4 -37.0887 22486.2
 24 10 2015  03 26  -14.5090 17937.0 -13560.3 -37.0891 22486.0
 24 10 2015  03 27  -14.5098 17937.5 -13560.4 -37.0885 22486.4
 24 10 2015  03 28  -14.5097 17938.2 -13560.6 -37.0878 22487.1
 24 10 2015  03 29  -14.5101 17938.7 -13560.7 -37.0873 22487.5
 24 10 2015  03 30  -14.5104 17938.9 -13560.6 -37.0867 22487.7
 24 10 2015  03 31  -14.5102 17939.8 -13560.6 -37.0853 22488.4
 24 10 2015  03 32  -14.5102 17940.0 -13560.6 -37.0851 22488.5
 24 10 2015  03 33  -14.5104 17940.2 -13560.4 -37.0844 22488.6
 24 10 2015  03 34  -14.5106 17939.7 -13560.3 -37.0850 22488.1
 24 10 2015  03 35  -14.5108 17939.2 -13560.0 -37.0851 22487.5
 24 10 2015  03 36  -14.5105 17939.0 -13560.1 -37.0855 22487.4
 24 10 2015  03 37  -14.5101 17939.1 -13560.1 -37.0855 22487.5
 24 10 2015  03 38  -14.5094 17939.5 -13560.0 -37.0847 22487.7
 24 10 2015  03 39  -14.5104 17939.5 -13560.3 -37.0853 22487.9
 24 10 2015  03 40  -14.5098 17939.6 -13560.2 -37.0849 22488.0
 24 10 2015  03 41  -14.5099 17940.1 -13560.4 -37.0845 22488.4
 24 10 2015  03 42  -14.5091 17940.4 -13560.3 -37.0839 22488.7
 24 10 2015  03 43  -14.5089 17940.9 -13560.4 -37.0832 22489.1
 24 10 2015  03 44  -14.5084 17941.5 -13560.4 -37.0824 22489.6
 24 10 2015  03 45  -14.5082 17941.9 -13560.4 -37.0817 22489.9
 24 10 2015  03 46  -14.5082 17942.1 -13560.5 -37.0816 22490.1
 24 10 2015  03 47  -14.5090 17942.1 -13560.3 -37.0811 22490.0
 24 10 2015  03 48  -14.5100 17941.7 -13560.1 -37.0816 22489.6
 24 10 2015  03 49  -14.5109 17941.5 -13560.0 -37.0816 22489.4
 24 10 2015  03 50  -14.5114 17941.7 -13560.1 -37.0815 22489.5
 24 10 2015  03 51  -14.5116 17941.8 -13560.2 -37.0815 22489.7
 24 10 2015  03 52  -14.5113 17941.7 -13560.1 -37.0813 22489.5
 24 10 2015  03 53  -14.5106 17941.6 -13560.1 -37.0816 22489.4
 24 10 2015  03 54  -14.5096 17941.7 -13560.0 -37.0813 22489.5
 24 10 2015  03 55  -14.5082 17941.8 -13560.1 -37.0813 22489.7
 24 10 2015  03 56  -14.5071 17941.6 -13560.0 -37.0814 22489.4
 24 10 2015  03 57  -14.5065 17941.0 -13560.0 -37.0823 22488.9
 24 10 2015  03 58  -14.5065 17940.4 -13560.0 -37.0833 22488.5
 24 10 2015  03 59  -14.5070 17940.1 -13560.1 -37.0838 22488.3
 24 10 2015  04 00  -14.5074 17940.0 -13560.0 -37.0839 22488.2
 24 10 2015  04 01  -14.5083 17939.8 -13560.2 -37.0845 22488.1
 24 10 2015  04 02  -14.5089 17939.7 -13560.2 -37.0846 22488.0
 24 10 2015  04 03  -14.5097 17939.4 -13560.3 -37.0854 22487.9
 24 10 2015  04 04  -14.5102 17939.2 -13560.3 -37.0857 22487.7
 24 10 2015  04 05  -14.5106 17938.9 -13560.2 -37.0860 22487.4
 24 10 2015  04 06  -14.5103 17938.8 -13560.3 -37.0864 22487.4
 24 10 2015  04 07  -14.5109 17938.6 -13560.3 -37.0867 22487.2
 24 10 2015  04 08  -14.5107 17938.9 -13560.7 -37.0869 22487.7
 24 10 2015  04 09  -14.5124 17938.6 -13560.6 -37.0872 22487.4
 24 10 2015  04 10  -14.5127 17939.0 -13560.7 -37.0867 22487.8
 24 10 2015  04 11  -14.5137 17938.7 -13560.7 -37.0872 22487.6
 24 10 2015  04 12  -14.5134 17939.7 -13560.8 -37.0858 22488.4
 24 10 2015  04 13  -14.5136 17940.1 -13560.8 -37.0853 22488.7
 24 10 2015  04 14  -14.5131 17940.3 -13561.0 -37.0854 22489.0
 24 10 2015  04 15  -14.5128 17940.4 -13560.8 -37.0848 22488.9
 24 10 2015  04 16  -14.5123 17941.3 -13560.9 -37.0836 22489.7
 24 10 2015  04 17  -14.5122 17941.2 -13560.9 -37.0839 22489.7
 24 10 2015  04 18  -14.5114 17941.2 -13561.0 -37.0840 22489.7
 24 10 2015  04 19  -14.5111 17941.9 -13560.9 -37.0828 22490.2
 24 10 2015  04 20  -14.5101 17942.6 -13561.2 -37.0824 22490.9
 24 10 2015  04 21  -14.5103 17942.7 -13560.8 -37.0812 22490.8
 24 10 2015  04 22  -14.5098 17942.8 -13560.9 -37.0813 22490.9
 24 10 2015  04 23  -14.5089 17943.7 -13560.9 -37.0800 22491.6
 24 10 2015  04 24  -14.5084 17944.3 -13561.0 -37.0793 22492.2
 24 10 2015  04 25  -14.5084 17944.8 -13560.9 -37.0783 22492.5
 24 10 2015  04 26  -14.5087 17945.2 -13560.9 -37.0778 22492.8
 24 10 2015  04 27  -14.5089 17945.8 -13561.1 -37.0772 22493.4
 24 10 2015  04 28  -14.5083 17947.1 -13561.1 -37.0753 22494.5
 24 10 2015  04 29  -14.5084 17948.1 -13561.1 -37.0737 22495.3
 24 10 2015  04 30  -14.5081 17949.1 -13560.9 -37.0718 22496.0
 24 10 2015  04 31  -14.5080 17950.1 -13561.0 -37.0704 22496.8
 24 10 2015  04 32  -14.5073 17951.0 -13561.0 -37.0689 22497.5
 24 10 2015  04 33  -14.5072 17951.6 -13560.8 -37.0676 22497.9
 24 10 2015  04 34  -14.5056 17952.7 -13560.9 -37.0663 22498.8
 24 10 2015  04 35  -14.5052 17952.8 -13560.6 -37.0655 22498.7
 24 10 2015  04 36  -14.5045 17952.7 -13560.5 -37.0653 22498.6
 24 10 2015  04 37  -14.5048 17952.7 -13560.4 -37.0651 22498.6
 24 10 2015  04 38  -14.5052 17953.5 -13560.4 -37.0640 22499.1
 24 10 2015  04 39  -14.5062 17953.7 -13560.4 -37.0637 22499.3
 24 10 2015  04 40  -14.5064 17953.9 -13560.1 -37.0627 22499.3
 24 10 2015  04 41  -14.5058 17954.1 -13560.3 -37.0629 22499.6
 24 10 2015  04 42  -14.5055 17954.0 -13560.0 -37.0624 22499.3
 24 10 2015  04 43  -14.5055 17954.2 -13559.5 -37.0612 22499.2
 24 10 2015  04 44  -14.5052 17954.0 -13559.9 -37.0621 22499.3
 24 10 2015  04 45  -14.5049 17953.9 -13559.8 -37.0620 22499.1
 24 10 2015  04 46  -14.5050 17953.7 -13559.8 -37.0625 22498.9
 24 10 2015  04 47  -14.5048 17953.4 -13559.7 -37.0626 22498.6
 24 10 2015  04 48  -14.5047 17953.1 -13559.6 -37.0629 22498.4
 24 10 2015  04 49  -14.5043 17953.0 -13559.7 -37.0632 22498.4
 24 10 2015  04 50  -14.5038 17952.9 -13559.7 -37.0634 22498.3
 24 10 2015  04 51  -14.5031 17952.8 -13559.7 -37.0635 22498.2
 24 10 2015  04 52  -14.5023 17952.6 -13559.6 -37.0638 22498.0
 24 10 2015  04 53  -14.5015 17952.3 -13559.7 -37.0645 22497.8
 24 10 2015  04 54  -14.5008 17952.0 -13559.6 -37.0645 22497.5
 24 10 2015  04 55  -14.5006 17951.5 -13559.9 -37.0658 22497.3
 24 10 2015  04 56  -14.5006 17951.2 -13559.6 -37.0659 22496.8
 24 10 2015  04 57  -14.5006 17951.0 -13559.8 -37.0665 22496.8
 24 10 2015  04 58  -14.5006 17950.9 -13560.0 -37.0671 22496.8
 24 10 2015  04 59  -14.5004 17950.8 -13560.1 -37.0673 22496.8
 24 10 2015  05 00  -14.4998 17950.9 -13560.1 -37.0673 22496.9
 24 10 2015  05 01  -14.4993 17950.9 -13560.0 -37.0672 22496.8
 24 10 2015  05 02  -14.4987 17950.8 -13560.2 -37.0676 22496.9
 24 10 2015  05 03  -14.4986 17950.7 -13560.3 -37.0680 22496.9
 24 10 2015  05 04  -14.4987 17950.6 -13560.5 -37.0685 22496.9
 24 10 2015  05 05  -14.4990 17950.5 -13560.5 -37.0688 22496.8
 24 10 2015  05 06  -14.4990 17950.3 -13560.4 -37.0687 22496.6
 24 10 2015  05 07  -14.4992 17950.2 -13560.5 -37.0694 22496.6
 24 10 2015  05 08  -14.4995 17950.0 -13560.7 -37.0699 22496.5
 24 10 2015  05 09  -14.4999 17949.8 -13560.5 -37.0698 22496.2
 24 10 2015  05 10  -14.5008 17949.8 -13560.5 -37.0699 22496.3
 24 10 2015  05 11  -14.5023 17950.0 -13560.6 -37.0696 22496.5
 24 10 2015  05 12  -14.5038 17949.9 -13561.0 -37.0708 22496.6
 24 10 2015  05 13  -14.5050 17949.7 -13560.5 -37.0700 22496.2
 24 10 2015  05 14  -14.5063 17949.4 -13560.6 -37.0706 22496.0
 24 10 2015  05 15  -14.5077 17949.0 -13560.4 -37.0707 22495.6
 24 10 2015  05 16  -14.5089 17948.4 -13560.3 -37.0716 22495.0
 24 10 2015  05 17  -14.5100 17947.9 -13560.5 -37.0727 22494.8
 24 10 2015  05 18  -14.5112 17947.5 -13560.5 -37.0733 22494.5
 24 10 2015  05 19  -14.5123 17947.6 -13560.5 -37.0733 22494.5
 24 10 2015  05 20  -14.5134 17947.4 -13560.7 -37.0737 22494.5
 24 10 2015  05 21  -14.5143 17947.3 -13560.4 -37.0735 22494.2
 24 10 2015  05 22  -14.5149 17947.1 -13560.7 -37.0743 22494.2
 24 10 2015  05 23  -14.5158 17946.8 -13560.3 -37.0740 22493.8
 24 10 2015  05 24  -14.5170 17946.8 -13560.5 -37.0744 22493.9
 24 10 2015  05 25  -14.5178 17947.0 -13560.6 -37.0743 22494.1
 24 10 2015  05 26  -14.5188 17947.0 -13560.6 -37.0744 22494.1
 24 10 2015  05 27  -14.5190 17946.8 -13560.3 -37.0740 22493.8
 24 10 2015  05 28  -14.5186 17946.5 -13560.4 -37.0748 22493.6
 24 10 2015  05 29  -14.5183 17945.8 -13560.3 -37.0756 22493.0
 24 10 2015  05 30  -14.5181 17945.0 -13560.2 -37.0766 22492.3
 24 10 2015  05 31  -14.5180 17944.3 -13560.1 -37.0774 22491.6
 24 10 2015  05 32  -14.5182 17943.8 -13560.2 -37.0785 22491.3
 24 10 2015  05 33  -14.5189 17943.4 -13560.4 -37.0793 22491.1
 24 10 2015  05 34  -14.5195 17943.4 -13560.5 -37.0795 22491.2
 24 10 2015  05 35  -14.5199 17943.6 -13560.4 -37.0791 22491.2
 24 10 2015  05 36  -14.5201 17943.7 -13560.6 -37.0794 22491.4
 24 10 2015  05 37  -14.5199 17943.6 -13560.4 -37.0792 22491.3
 24 10 2015  05 38  -14.5194 17943.4 -13560.5 -37.0797 22491.2
 24 10 2015  05 39  -14.5190 17943.1 -13560.6 -37.0804 22491.0
 24 10 2015  05 40  -14.5191 17942.8 -13560.5 -37.0805 22490.6
 24 10 2015  05 41  -14.5190 17942.4 -13560.5 -37.0812 22490.4
 24 10 2015  05 42  -14.5186 17942.2 -13560.5 -37.0815 22490.3
 24 10 2015  05 43  -14.5179 17942.0 -13560.4 -37.0817 22490.0
 24 10 2015  05 44  -14.5175 17941.7 -13560.9 -37.0831 22490.0
 24 10 2015  05 45  -14.5171 17941.6 -13560.6 -37.0825 22489.8
 24 10 2015  05 46  -14.5170 17941.7 -13560.7 -37.0826 22489.9
 24 10 2015  05 47  -14.5171 17941.8 -13560.6 -37.0821 22490.0
 24 10 2015  05 48  -14.5171 17942.0 -13560.9 -37.0826 22490.3
 24 10 2015  05 49  -14.5172 17942.1 -13560.9 -37.0825 22490.4
 24 10 2015  05 50  -14.5172 17942.2 -13560.8 -37.0821 22490.4
 24 10 2015  05 51  -14.5175 17942.6 -13560.8 -37.0815 22490.7
 24 10 2015  05 52  -14.5178 17942.9 -13561.1 -37.0816 22491.1
 24 10 2015  05 53  -14.5179 17943.4 -13560.9 -37.0805 22491.4
 24 10 2015  05 54  -14.5177 17944.2 -13561.0 -37.0795 22492.1
 24 10 2015  05 55  -14.5173 17944.6 -13561.1 -37.0790 22492.5
 24 10 2015  05 56  -14.5168 17944.7 -13560.9 -37.0784 22492.5
 24 10 2015  05 57  -14.5159 17944.7 -13560.8 -37.0783 22492.4
 24 10 2015  05 58  -14.5147 17944.0 -13560.6 -37.0789 22491.7
 24 10 2015  05 59  -14.5136 17943.1 -13560.4 -37.0798 22490.8
 24 10 2015  06 00  -14.5128 17942.5 -13560.2 -37.0804 22490.3
 24 10 2015  06 01  -14.5129 17942.5 -13560.5 -37.0809 22490.5
 24 10 2015  06 02  -14.5133 17942.4 -13560.6 -37.0813 22490.5
 24 10 2015  06 03  -14.5132 17942.4 -13560.6 -37.0813 22490.4
 24 10 2015  06 04  -14.5122 17942.1 -13560.6 -37.0817 22490.2
 24 10 2015  06 05  -14.5119 17941.8 -13560.7 -37.0824 22490.0
 24 10 2015  06 06  -14.5118 17941.8 -13560.9 -37.0830 22490.1
 24 10 2015  06 07  -14.5121 17941.7 -13560.8 -37.0828 22490.0
 24 10 2015  06 08  -14.5128 17941.4 -13560.8 -37.0834 22489.8
 24 10 2015  06 09  -14.5132 17941.2 -13560.9 -37.0837 22489.6
 24 10 2015  06 10  -14.5128 17941.0 -13560.9 -37.0840 22489.5
 24 10 2015  06 11  -14.5121 17940.7 -13560.9 -37.0845 22489.3
 24 10 2015  06 12  -14.5119 17940.6 -13560.9 -37.0848 22489.2
 24 10 2015  06 13  -14.5122 17940.5 -13560.6 -37.0844 22488.9
 24 10 2015  06 14  -14.5123 17940.5 -13561.0 -37.0851 22489.2
 24 10 2015  06 15  -14.5126 17940.4 -13561.0 -37.0852 22489.1
 24 10 2015  06 16  -14.5126 17940.5 -13560.9 -37.0850 22489.1
 24 10 2015  06 17  -14.5129 17940.6 -13561.1 -37.0850 22489.3
 24 10 2015  06 18  -14.5132 17940.8 -13561.2 -37.0849 22489.5
 24 10 2015  06 19  -14.5137 17941.0 -13561.0 -37.0843 22489.6
 24 10 2015  06 20  -14.5139 17940.9 -13561.2 -37.0849 22489.7
 24 10 2015  06 21  -14.5143 17940.8 -13561.1 -37.0849 22489.5
 24 10 2015  06 22  -14.5154 17940.5 -13561.1 -37.0852 22489.2
 24 10 2015  06 23  -14.5163 17940.4 -13560.9 -37.0850 22489.0
 24 10 2015  06 24  -14.5167 17940.3 -13561.0 -37.0854 22488.9
 24 10 2015  06 25  -14.5166 17940.0 -13561.1 -37.0860 22488.8
 24 10 2015  06 26  -14.5164 17939.8 -13560.9 -37.0859 22488.6
 24 10 2015  06 27  -14.5163 17939.7 -13561.0 -37.0864 22488.6
 24 10 2015  06 28  -14.5166 17939.7 -13561.1 -37.0866 22488.6
 24 10 2015  06 29  -14.5169 17939.6 -13561.2 -37.0869 22488.5
 24 10 2015  06 30  -14.5166 17939.3 -13560.9 -37.0867 22488.2
 24 10 2015  06 31  -14.5162 17939.4 -13561.1 -37.0869 22488.3
 24 10 2015  06 32  -14.5161 17939.8 -13561.1 -37.0864 22488.7
 24 10 2015  06 33  -14.5156 17940.2 -13561.2 -37.0860 22489.0
 24 10 2015  06 34  -14.5146 17940.8 -13561.7 -37.0860 22489.8
 24 10 2015  06 35  -14.5138 17941.2 -13561.2 -37.0844 22489.8
 24 10 2015  06 36  -14.5124 17941.6 -13561.6 -37.0846 22490.4
 24 10 2015  06 37  -14.5112 17941.8 -13561.2 -37.0836 22490.3
 24 10 2015  06 38  -14.5098 17942.2 -13561.2 -37.0828 22490.6
 24 10 2015  06 39  -14.5089 17942.5 -13561.1 -37.0821 22490.8
 24 10 2015  06 40  -14.5082 17942.8 -13561.2 -37.0820 22491.1
 24 10 2015  06 41  -14.5074 17943.1 -13561.1 -37.0813 22491.3
 24 10 2015  06 42  -14.5063 17944.0 -13561.2 -37.0802 22492.0
 24 10 2015  06 43  -14.5052 17944.6 -13561.1 -37.0789 22492.5
 24 10 2015  06 44  -14.5037 17945.1 -13561.2 -37.0785 22492.9
 24 10 2015  06 45  -14.5028 17945.6 -13560.9 -37.0771 22493.2
 24 10 2015  06 46  -14.5016 17946.2 -13560.9 -37.0763 22493.6
 24 10 2015  06 47  -14.5001 17946.5 -13560.9 -37.0757 22493.8
 24 10 2015  06 48  -14.4981 17947.0 -13560.8 -37.0748 22494.2
 24 10 2015  06 49  -14.4961 17947.5 -13561.0 -37.0742 22494.8
 24 10 2015  06 50  -14.4942 17947.7 -13560.7 -37.0733 22494.7
 24 10 2015  06 51  -14.4923 17948.1 -13560.7 -37.0728 22495.1
 24 10 2015  06 52  -14.4905 17948.5 -13561.0 -37.0728 22495.6
 24 10 2015  06 53  -14.4884 17949.0 -13560.4 -37.0708 22495.6
 24 10 2015  06 54  -14.4871 17949.4 -13560.5 -37.0703 22496.0
 24 10 2015  06 55  -14.4862 17949.8 -13560.6 -37.0700 22496.3
 24 10 2015  06 56  -14.4860 17950.0 -13560.5 -37.0695 22496.4
 24 10 2015  06 57  -14.4856 17950.2 -13560.3 -37.0687 22496.5
 24 10 2015  06 58  -14.4851 17950.4 -13560.1 -37.0680 22496.6
 24 10 2015  06 59  -14.4848 17950.6 -13560.2 -37.0680 22496.7
 24 10 2015  07 00  -14.4845 17950.9 -13560.2 -37.0674 22497.0
 24 10 2015  07 01  -14.4843 17951.1 -13560.0 -37.0667 22497.1
 24 10 2015  07 02  -14.4844 17951.3 -13560.0 -37.0664 22497.2
 24 10 2015  07 03  -14.4849 17951.3 -13559.9 -37.0662 22497.1
 24 10 2015  07 04  -14.4855 17951.5 -13560.0 -37.0662 22497.4
 24 10 2015  07 05  -14.4861 17951.7 -13560.0 -37.0658 22497.5
 24 10 2015  07 06  -14.4861 17952.0 -13559.8 -37.0650 22497.6
 24 10 2015  07 07  -14.4860 17951.8 -13559.7 -37.0650 22497.4
 24 10 2015  07 08  -14.4858 17951.7 -13559.5 -37.0649 22497.2
 24 10 2015  07 09  -14.4858 17952.0 -13559.7 -37.0647 22497.6
 24 10 2015  07 10  -14.4860 17952.2 -13559.7 -37.0644 22497.7
 24 10 2015  07 11  -14.4865 17952.3 -13559.5 -37.0639 22497.7
 24 10 2015  07 12  -14.4868 17952.3 -13559.6 -37.0641 22497.7
 24 10 2015  07 13  -14.4869 17952.5 -13559.3 -37.0632 22497.7
 24 10 2015  07 14  -14.4873 17952.5 -13559.3 -37.0633 22497.7
 24 10 2015  07 15  -14.4875 17952.5 -13559.3 -37.0631 22497.7
 24 10 2015  07 16  -14.4873 17952.6 -13559.3 -37.0630 22497.8
 24 10 2015  07 17  -14.4878 17952.5 -13559.2 -37.0630 22497.7
 24 10 2015  07 18  -14.4875 17952.5 -13559.5 -37.0635 22497.8
 24 10 2015  07 19  -14.4873 17952.7 -13559.3 -37.0628 22497.8
 24 10 2015  07 20  -14.4876 17952.5 -13559.1 -37.0627 22497.6
 24 10 2015  07 21  -14.4879 17952.4 -13559.0 -37.0628 22497.4
 24 10 2015  07 22  -14.4880 17952.2 -13559.0 -37.0631 22497.3
 24 10 2015  07 23  -14.4882 17952.2 -13559.2 -37.0636 22497.4
 24 10 2015  07 24  -14.4884 17952.1 -13559.3 -37.0637 22497.4
 24 10 2015  07 25  -14.4884 17952.2 -13559.1 -37.0634 22497.3
 24 10 2015  07 26  -14.4885 17952.2 -13559.0 -37.0632 22497.3
 24 10 2015  07 27  -14.4888 17952.3 -13559.2 -37.0634 22497.5
 24 10 2015  07 28  -14.4888 17952.4 -13559.2 -37.0633 22497.5
 24 10 2015  07 29  -14.4890 17952.3 -13559.1 -37.0631 22497.5
 24 10 2015  07 30  -14.4890 17952.3 -13559.3 -37.0635 22497.5
 24 10 2015  07 31  -14.4889 17952.1 -13559.3 -37.0638 22497.4
 24 10 2015  07 32  -14.4888 17951.7 -13559.0 -37.0639 22496.9
 24 10 2015  07 33  -14.4892 17951.7 -13559.1 -37.0640 22497.0
 24 10 2015  07 34  -14.4896 17951.6 -13559.1 -37.0642 22496.9
 24 10 2015  07 35  -14.4901 17951.7 -13559.2 -37.0643 22497.0
 24 10 2015  07 36  -14.4902 17951.9 -13559.2 -37.0638 22497.2
 24 10 2015  07 37  -14.4901 17952.1 -13559.5 -37.0642 22497.5
 24 10 2015  07 38  -14.4902 17952.5 -13559.4 -37.0634 22497.8
 24 10 2015  07 39  -14.4903 17953.0 -13559.5 -37.0629 22498.2
 24 10 2015  07 40  -14.4903 17953.6 -13559.5 -37.0620 22498.7
 24 10 2015  07 41  -14.4901 17954.0 -13559.5 -37.0613 22499.0
 24 10 2015  07 42  -14.4901 17954.2 -13559.4 -37.0608 22499.1
 24 10 2015  07 43  -14.4900 17954.1 -13559.4 -37.0609 22499.1
 24 10 2015  07 44  -14.4899 17953.9 -13559.2 -37.0609 22498.7
 24 10 2015  07 45  -14.4902 17953.1 -13558.9 -37.0614 22498.0
 24 10 2015  07 46  -14.4908 17952.6 -13558.9 -37.0623 22497.6
 24 10 2015  07 47  -14.4914 17951.9 -13558.8 -37.0631 22497.0
 24 10 2015  07 48  -14.4914 17951.7 -13558.9 -37.0636 22496.8
 24 10 2015  07 49  -14.4918 17951.8 -13559.2 -37.0640 22497.1
 24 10 2015  07 50  -14.4921 17951.8 -13559.0 -37.0637 22497.0
 24 10 2015  07 51  -14.4925 17951.7 -13559.1 -37.0640 22496.9
 24 10 2015  07 52  -14.4927 17951.6 -13559.1 -37.0640 22496.9
 24 10 2015  07 53  -14.4927 17951.7 -13559.2 -37.0642 22496.9
 24 10 2015  07 54  -14.4930 17951.6 -13559.2 -37.0644 22496.9
 24 10 2015  07 55  -14.4931 17951.5 -13559.2 -37.0645 22496.8
 24 10 2015  07 56  -14.4931 17951.4 -13559.2 -37.0646 22496.8
 24 10 2015  07 57  -14.4932 17951.4 -13559.1 -37.0646 22496.7
 24 10 2015  07 58  -14.4934 17951.1 -13559.1 -37.0649 22496.5
 24 10 2015  07 59  -14.4939 17950.9 -13559.2 -37.0653 22496.4
 24 10 2015  08 00  -14.4942 17950.6 -13559.1 -37.0656 22496.0
 24 10 2015  08 01  -14.4946 17950.3 -13559.1 -37.0662 22495.9
 24 10 2015  08 02  -14.4949 17950.0 -13558.9 -37.0663 22495.5
 24 10 2015  08 03  -14.4954 17949.8 -13559.2 -37.0673 22495.5
 24 10 2015  08 04  -14.4958 17949.5 -13559.0 -37.0672 22495.2
 24 10 2015  08 05  -14.4963 17949.1 -13559.1 -37.0681 22494.9
 24 10 2015  08 06  -14.4968 17948.7 -13559.2 -37.0688 22494.6
 24 10 2015  08 07  -14.4974 17948.2 -13559.6 -37.0703 22494.4
 24 10 2015  08 08  -14.4979 17947.8 -13559.2 -37.0702 22493.9
 24 10 2015  08 09  -14.4985 17947.5 -13559.3 -37.0709 22493.8
 24 10 2015  08 10  -14.4988 17947.9 -13559.1 -37.0699 22493.9
 24 10 2015  08 11  -14.4994 17948.2 -13559.2 -37.0695 22494.2
 24 10 2015  08 12  -14.4996 17948.5 -13559.7 -37.0702 22494.7
 24 10 2015  08 13  -14.5002 17948.7 -13559.3 -37.0691 22494.6
 24 10 2015  08 14  -14.5001 17948.6 -13559.6 -37.0697 22494.7
 24 10 2015  08 15  -14.5004 17948.6 -13559.3 -37.0691 22494.6
 24 10 2015  08 16  -14.5006 17948.9 -13559.5 -37.0693 22495.0
 24 10 2015  08 17  -14.5005 17948.6 -13559.3 -37.0692 22494.6
 24 10 2015  08 18  -14.5008 17948.3 -13559.3 -37.0696 22494.4
 24 10 2015  08 19  -14.5007 17948.2 -13559.3 -37.0698 22494.3
 24 10 2015  08 20  -14.5004 17947.9 -13559.4 -37.0704 22494.1
 24 10 2015  08 21  -14.5005 17947.9 -13559.1 -37.0698 22493.9
 24 10 2015  08 22  -14.5001 17947.7 -13559.3 -37.0705 22493.8
 24 10 2015  08 23  -14.4998 17947.6 -13559.3 -37.0707 22493.8
 24 10 2015  08 24  -14.4998 17947.7 -13559.5 -37.0709 22494.0
 24 10 2015  08 25  -14.4993 17947.6 -13559.7 -37.0714 22494.0
 24 10 2015  08 26  -14.4990 17948.0 -13559.3 -37.0701 22494.1
 24 10 2015  08 27  -14.4983 17948.2 -13559.5 -37.0702 22494.4
 24 10 2015  08 28  -14.4978 17948.3 -13559.5 -37.0701 22494.5
 24 10 2015  08 29  -14.4967 17948.5 -13559.3 -37.0694 22494.5
 24 10 2015  08 30  -14.4959 17949.2 -13559.3 -37.0682 22495.1
 24 10 2015  08 31  -14.4949 17949.5 -13559.4 -37.0681 22495.4
 24 10 2015  08 32  -14.4936 17949.9 -13559.7 -37.0681 22495.9
 24 10 2015  08 33  -14.4928 17950.1 -13559.5 -37.0673 22495.9
 24 10 2015  08 34  -14.4917 17950.3 -13559.6 -37.0673 22496.1
 24 10 2015  08 35  -14.4908 17950.3 -13559.3 -37.0666 22496.0
 24 10 2015  08 36  -14.4898 17950.3 -13559.2 -37.0664 22495.9
 24 10 2015  08 37  -14.4892 17950.3 -13559.2 -37.0665 22495.9
 24 10 2015  08 38  -14.4888 17950.0 -13559.3 -37.0670 22495.7
 24 10 2015  08 39  -14.4890 17949.7 -13559.3 -37.0675 22495.5
 24 10 2015  08 40  -14.4888 17949.5 -13559.3 -37.0678 22495.3
 24 10 2015  08 41  -14.4886 17949.3 -13559.1 -37.0676 22495.0
 24 10 2015  08 42  -14.4883 17949.3 -13559.8 -37.0692 22495.5
 24 10 2015  08 43  -14.4878 17949.3 -13559.7 -37.0690 22495.4
 24 10 2015  08 44  -14.4873 17949.3 -13559.6 -37.0688 22495.3
 24 10 2015  08 45  -14.4873 17949.2 -13559.6 -37.0689 22495.3
 24 10 2015  08 46  -14.4872 17949.2 -13559.9 -37.0694 22495.5
 24 10 2015  08 47  -14.4866 17949.3 -13559.9 -37.0693 22495.6
 24 10 2015  08 48  -14.4859 17949.5 -13559.8 -37.0689 22495.7
 24 10 2015  08 49  -14.4853 17949.7 -13559.9 -37.0688 22495.8
 24 10 2015  08 50  -14.4842 17949.7 -13559.9 -37.0688 22495.8
 24 10 2015  08 51  -14.4835 17949.6 -13560.0 -37.0690 22495.8
 24 10 2015  08 52  -14.4831 17949.4 -13560.0 -37.0694 22495.6
 24 10 2015  08 53  -14.4831 17949.1 -13560.0 -37.0699 22495.4
 24 10 2015  08 54  -14.4832 17949.0 -13560.0 -37.0701 22495.3
 24 10 2015  08 55  -14.4837 17948.8 -13560.2 -37.0706 22495.3
 24 10 2015  08 56  -14.4842 17948.8 -13560.4 -37.0711 22495.5
 24 10 2015  08 57  -14.4846 17948.7 -13560.5 -37.0715 22495.4
 24 10 2015  08 58  -14.4846 17948.8 -13560.7 -37.0718 22495.6
 24 10 2015  08 59  -14.4844 17948.7 -13560.8 -37.0720 22495.6
 24 10 2015  09 00  -14.4843 17948.7 -13561.0 -37.0723 22495.7
 24 10 2015  09 01  -14.4836 17949.0 -13560.9 -37.0717 22495.9
 24 10 2015  09 02  -14.4830 17949.0 -13561.5 -37.0729 22496.2
 24 10 2015  09 03  -14.4830 17949.0 -13561.2 -37.0725 22496.0
 24 10 2015  09 04  -14.4830 17949.1 -13561.1 -37.0722 22496.1
 24 10 2015  09 05  -14.4828 17949.2 -13561.5 -37.0727 22496.4
 24 10 2015  09 06  -14.4829 17949.3 -13561.5 -37.0727 22496.5
 24 10 2015  09 07  -14.4829 17949.2 -13561.6 -37.0730 22496.5
 24 10 2015  09 08  -14.4829 17949.2 -13561.8 -37.0734 22496.5
 24 10 2015  09 09  -14.4830 17949.3 -13561.9 -37.0735 22496.7
 24 10 2015  09 10  -14.4823 17949.4 -13561.4 -37.0722 22496.5
 24 10 2015  09 11  -14.4821 17949.5 -13562.4 -37.0742 22497.2
 24 10 2015  09 12  -14.4823 17949.6 -13562.5 -37.0741 22497.3
 24 10 2015  09 13  -14.4824 17949.6 -13562.3 -37.0738 22497.3
 24 10 2015  09 14  -14.4825 17949.8 -13563.0 -37.0750 22497.8
 24 10 2015  09 15  -14.4828 17949.9 -13562.8 -37.0744 22497.7
 24 10 2015  09 16  -14.4832 17949.9 -13562.9 -37.0746 22497.9
 24 10 2015  09 17  -14.4835 17950.1 -13563.2 -37.0748 22498.2
 24 10 2015  09 18  -14.4840 17950.2 -13563.4 -37.0751 22498.4
 24 10 2015  09 19  -14.4840 17950.2 -13563.4 -37.0751 22498.3
 24 10 2015  09 20  -14.4844 17950.1 -13563.5 -37.0754 22498.4
 24 10 2015  09 21  -14.4850 17950.2 -13563.6 -37.0754 22498.5
 24 10 2015  09 22  -14.4856 17950.4 -13564.4 -37.0768 22499.0
 24 10 2015  09 23  -14.4863 17950.4 -13564.2 -37.0764 22499.0
 24 10 2015  09 24  -14.4872 17950.4 -13564.2 -37.0764 22499.0
 24 10 2015  09 25  -14.4876 17950.6 -13564.3 -37.0764 22499.2
 24 10 2015  09 26  -14.4880 17950.7 -13564.6 -37.0767 22499.5
 24 10 2015  09 27  -14.4878 17950.9 -13564.7 -37.0767 22499.7
 24 10 2015  09 28  -14.4880 17950.9 -13565.0 -37.0773 22499.9
 24 10 2015  09 29  -14.4886 17950.9 -13565.0 -37.0771 22499.9
 24 10 2015  09 30  -14.4892 17951.3 -13565.2 -37.0770 22500.3
 24 10 2015  09 31  -14.4888 17951.4 -13565.2 -37.0770 22500.4
 24 10 2015  09 32  -14.4895 17951.3 -13565.4 -37.0775 22500.5
 24 10 2015  09 33  -14.4903 17951.6 -13565.7 -37.0776 22500.9
 24 10 2015  09 34  -14.4904 17951.6 -13565.9 -37.0779 22500.9
 24 10 2015  09 35  -14.4916 17951.7 -13566.2 -37.0784 22501.2
 24 10 2015  09 36  -14.4915 17952.1 -13566.5 -37.0785 22501.7
 24 10 2015  09 37  -14.4918 17951.9 -13566.3 -37.0784 22501.4
 24 10 2015  09 38  -14.4923 17952.2 -13566.5 -37.0783 22501.8
 24 10 2015  09 39  -14.4920 17952.3 -13566.8 -37.0788 22502.1
 24 10 2015  09 40  -14.4928 17952.2 -13566.7 -37.0788 22501.9
 24 10 2015  09 41  -14.4941 17952.5 -13566.5 -37.0778 22502.0
 24 10 2015  09 42  -14.4952 17952.7 -13566.9 -37.0784 22502.4
 24 10 2015  09 43  -14.4969 17952.8 -13567.1 -37.0786 22502.7
 24 10 2015  09 44  -14.4985 17952.9 -13567.2 -37.0787 22502.8
 24 10 2015  09 45  -14.4990 17953.0 -13567.5 -37.0792 22503.0
 24 10 2015  09 46  -14.4987 17953.1 -13567.3 -37.0786 22503.0
 24 10 2015  09 47  -14.4995 17953.5 -13567.6 -37.0784 22503.5
 24 10 2015  09 48  -14.5002 17953.3 -13567.7 -37.0791 22503.4
 24 10 2015  09 49  -14.4994 17953.0 -13567.8 -37.0796 22503.2
 24 10 2015  09 50  -14.4985 17953.1 -13567.9 -37.0797 22503.3
 24 10 2015  09 51  -14.4987 17953.5 -13568.2 -37.0797 22503.9
 24 10 2015  09 52  -14.4996 17953.6 -13568.4 -37.0800 22504.1
 24 10 2015  09 53  -14.4998 17953.8 -13568.5 -37.0798 22504.3
 24 10 2015  09 54  -14.5014 17953.8 -13568.4 -37.0796 22504.2
 24 10 2015  09 55  -14.5044 17953.7 -13568.4 -37.0800 22504.2
 24 10 2015  09 56  -14.5077 17952.9 -13568.5 -37.0814 22503.6
 24 10 2015  09 57  -14.5123 17953.0 -13568.6 -37.0813 22503.7
 24 10 2015  09 58  -14.5144 17953.4 -13568.6 -37.0809 22504.0
 24 10 2015  09 59  -14.5155 17954.0 -13568.6 -37.0799 22504.5
 24 10 2015  10 00  -14.5165 17954.8 -13569.0 -37.0793 22505.4
 24 10 2015  10 01  -14.5165 17954.9 -13568.6 -37.0784 22505.2
 24 10 2015  10 02  -14.5172 17954.7 -13568.6 -37.0789 22505.1
 24 10 2015  10 03  -14.5174 17954.2 -13568.8 -37.0800 22504.8
 24 10 2015  10 04  -14.5180 17954.4 -13569.0 -37.0800 22505.1
 24 10 2015  10 05  -14.5197 17954.7 -13569.0 -37.0797 22505.3
 24 10 2015  10 06  -14.5208 17955.0 -13569.3 -37.0798 22505.7
 24 10 2015  10 07  -14.5218 17955.3 -13569.3 -37.0791 22506.0
 24 10 2015  10 08  -14.5225 17955.4 -13569.2 -37.0790 22506.0
 24 10 2015  10 09  -14.5233 17955.5 -13569.4 -37.0790 22506.2
 24 10 2015  10 10  -14.5240 17955.8 -13569.3 -37.0786 22506.3
 24 10 2015  10 11  -14.5250 17955.9 -13569.4 -37.0784 22506.5
 24 10 2015  10 12  -14.5262 17956.3 -13569.4 -37.0779 22506.9
 24 10 2015  10 13  -14.5264 17956.6 -13569.5 -37.0777 22507.2
 24 10 2015  10 14  -14.5274 17957.2 -13569.4 -37.0767 22507.5
 24 10 2015  10 15  -14.5287 17957.8 -13570.1 -37.0770 22508.4
 24 10 2015  10 16  -14.5311 17958.3 -13569.8 -37.0758 22508.7
 24 10 2015  10 17  -14.5342 17958.4 -13569.9 -37.0756 22508.8
 24 10 2015  10 18  -14.5371 17958.3 -13569.6 -37.0753 22508.5
 24 10 2015  10 19  -14.5400 17958.3 -13569.6 -37.0753 22508.6
 24 10 2015  10 20  -14.5434 17958.4 -13569.3 -37.0744 22508.4
 24 10 2015  10 21  -14.5457 17958.5 -13569.2 -37.0741 22508.5
 24 10 2015  10 22  -14.5470 17958.8 -13569.4 -37.0740 22508.8
 24 10 2015  10 23  -14.5482 17959.3 -13569.4 -37.0734 22509.2
 24 10 2015  10 24  -14.5490 17959.3 -13569.4 -37.0733 22509.3
 24 10 2015  10 25  -14.5505 17959.5 -13569.2 -37.0727 22509.3
 24 10 2015  10 26  -14.5517 17959.6 -13569.2 -37.0725 22509.4
 24 10 2015  10 27  -14.5532 17959.6 -13569.3 -37.0726 22509.4
 24 10 2015  10 28  -14.5541 17959.7 -13569.9 -37.0737 22509.9
 24 10 2015  10 29  -14.5550 17959.9 -13569.5 -37.0725 22509.8
 24 10 2015  10 30  -14.5559 17959.7 -13569.5 -37.0728 22509.6
 24 10 2015  10 31  -14.5567 17959.7 -13569.3 -37.0724 22509.5
 24 10 2015  10 32  -14.5579 17959.8 -13569.5 -37.0728 22509.7
 24 10 2015  10 33  -14.5588 17959.9 -13569.8 -37.0731 22509.9
 24 10 2015  10 34  -14.5599 17960.2 -13569.7 -37.0725 22510.2
 24 10 2015  10 35  -14.5610 17960.6 -13569.6 -37.0717 22510.4
 24 10 2015  10 36  -14.5618 17961.0 -13569.8 -37.0716 22510.8
 24 10 2015  10 37  -14.5632 17961.2 -13570.0 -37.0716 22511.2
 24 10 2015  10 38  -14.5646 17961.1 -13569.7 -37.0710 22510.8
 24 10 2015  10 39  -14.5661 17961.2 -13569.7 -37.0709 22510.9
 24 10 2015  10 40  -14.5675 17961.1 -13569.5 -37.0707 22510.8
 24 10 2015  10 41  -14.5684 17961.5 -13569.7 -37.0705 22511.2
 24 10 2015  10 42  -14.5694 17962.0 -13569.8 -37.0700 22511.6
 24 10 2015  10 43  -14.5702 17961.9 -13569.7 -37.0698 22511.5
 24 10 2015  10 44  -14.5719 17961.8 -13569.7 -37.0701 22511.4
 24 10 2015  10 45  -14.5738 17961.6 -13569.8 -37.0705 22511.2
 24 10 2015  10 46  -14.5749 17961.3 -13569.5 -37.0705 22510.9
 24 10 2015  10 47  -14.5760 17961.3 -13569.8 -37.0711 22511.0
 24 10 2015  10 48  -14.5773 17961.1 -13569.3 -37.0702 22510.6
 24 10 2015  10 49  -14.5783 17961.0 -13569.5 -37.0708 22510.6
 24 10 2015  10 50  -14.5790 17960.8 -13569.7 -37.0715 22510.6
 24 10 2015  10 51  -14.5799 17960.8 -13569.6 -37.0715 22510.5
 24 10 2015  10 52  -14.5811 17960.9 -13569.5 -37.0710 22510.6
 24 10 2015  10 53  -14.5825 17961.1 -13569.4 -37.0706 22510.6
 24 10 2015  10 54  -14.5836 17961.1 -13569.7 -37.0712 22510.8
 24 10 2015  10 55  -14.5846 17961.1 -13569.7 -37.0712 22510.9
 24 10 2015  10 56  -14.5852 17961.2 -13569.9 -37.0714 22511.1
 24 10 2015  10 57  -14.5859 17961.3 -13569.9 -37.0711 22511.1
 24 10 2015  10 58  -14.5868 17961.4 -13569.7 -37.0707 22511.1
 24 10 2015  10 59  -14.5878 17961.6 -13569.6 -37.0701 22511.1
 24 10 2015  11 00  -14.5894 17961.8 -13569.6 -37.0698 22511.3
 24 10 2015  11 01  -14.5908 17961.9 -13569.4 -37.0693 22511.3
 24 10 2015  11 02  -14.5920 17961.7 -13569.7 -37.0701 22511.3
 24 10 2015  11 03  -14.5934 17961.6 -13569.2 -37.0694 22510.9
 24 10 2015  11 04  -14.5946 17961.4 -13569.0 -37.0693 22510.7
 24 10 2015  11 05  -14.5953 17961.4 -13569.0 -37.0692 22510.7
 24 10 2015  11 06  -14.5961 17961.4 -13568.9 -37.0692 22510.6
 24 10 2015  11 07  -14.5969 17961.2 -13569.1 -37.0697 22510.5
 24 10 2015  11 08  -14.5977 17961.2 -13568.9 -37.0694 22510.4
 24 10 2015  11 09  -14.5982 17961.1 -13568.8 -37.0693 22510.3
 24 10 2015  11 10  -14.5986 17961.1 -13568.6 -37.0690 22510.2
 24 10 2015  11 11  -14.5992 17961.1 -13568.7 -37.0691 22510.2
 24 10 2015  11 12  -14.6000 17961.0 -13568.6 -37.0690 22510.1
 24 10 2015  11 13  -14.6009 17961.1 -13568.6 -37.0690 22510.2
 24 10 2015  11 14  -14.6020 17961.2 -13568.3 -37.0682 22510.1
 24 10 2015  11 15  -14.6032 17961.3 -13568.3 -37.0681 22510.2
 24 10 2015  11 16  -14.6040 17961.2 -13568.0 -37.0675 22509.9
 24 10 2015  11 17  -14.6050 17961.2 -13568.0 -37.0676 22509.9
 24 10 2015  11 18  -14.6061 17961.2 -13567.8 -37.0671 22509.7
 24 10 2015  11 19  -14.6070 17961.1 -13567.6 -37.0669 22509.5
 24 10 2015  11 20  -14.6079 17961.0 -13567.6 -37.0670 22509.5
 24 10 2015  11 21  -14.6091 17960.9 -13567.5 -37.0669 22509.3
 24 10 2015  11 22  -14.6102 17960.6 -13567.0 -37.0664 22508.9
 24 10 2015  11 23  -14.6112 17960.5 -13567.1 -37.0667 22508.8
 24 10 2015  11 24  -14.6119 17960.4 -13567.2 -37.0670 22508.8
 24 10 2015  11 25  -14.6127 17960.5 -13566.9 -37.0662 22508.7
 24 10 2015  11 26  -14.6133 17960.5 -13567.0 -37.0666 22508.8
 24 10 2015  11 27  -14.6143 17960.4 -13566.6 -37.0659 22508.5
 24 10 2015  11 28  -14.6152 17960.5 -13566.3 -37.0651 22508.3
 24 10 2015  11 29  -14.6159 17960.6 -13566.3 -37.0651 22508.4
 24 10 2015  11 30  -14.6163 17960.7 -13566.5 -37.0651 22508.6
 24 10 2015  11 31  -14.6171 17960.8 -13565.9 -37.0639 22508.3
 24 10 2015  11 32  -14.6174 17961.1 -13566.0 -37.0636 22508.6
 24 10 2015  11 33  -14.6175 17961.2 -13565.7 -37.0629 22508.6
 24 10 2015  11 34  -14.6180 17961.3 -13565.6 -37.0626 22508.5
 24 10 2015  11 35  -14.6187 17961.2 -13565.2 -37.0618 22508.2
 24 10 2015  11 36  -14.6195 17961.0 -13565.3 -37.0624 22508.1
 24 10 2015  11 37  -14.6201 17961.1 -13565.0 -37.0616 22508.0
 24 10 2015  11 38  -14.6208 17961.0 -13564.9 -37.0615 22507.8
 24 10 2015  11 39  -14.6213 17961.0 -13564.6 -37.0609 22507.7
 24 10 2015  11 40  -14.6218 17961.0 -13564.8 -37.0613 22507.8
 24 10 2015  11 41  -14.6223 17961.2 -13564.4 -37.0601 22507.7
 24 10 2015  11 42  -14.6227 17961.1 -13564.1 -37.0597 22507.4
 24 10 2015  11 43  -14.6230 17961.1 -13564.0 -37.0597 22507.4
 24 10 2015  11 44  -14.6234 17961.1 -13563.7 -37.0590 22507.2
 24 10 2015  11 45  -14.6240 17961.1 -13563.6 -37.0588 22507.1
 24 10 2015  11 46  -14.6247 17961.1 -13563.2 -37.0580 22506.9
 24 10 2015  11 47  -14.6252 17961.3 -13563.7 -37.0587 22507.4
 24 10 2015  11 48  -14.6260 17961.3 -13563.0 -37.0574 22507.0
 24 10 2015  11 49  -14.6266 17961.3 -13562.7 -37.0567 22506.8
 24 10 2015  11 50  -14.6269 17961.6 -13562.4 -37.0556 22506.8
 24 10 2015  11 51  -14.6273 17961.7 -13562.5 -37.0555 22507.0
 24 10 2015  11 52  -14.6278 17961.9 -13562.1 -37.0544 22506.9
 24 10 2015  11 53  -14.6284 17961.8 -13561.6 -37.0537 22506.5
 24 10 2015  11 54  -14.6286 17961.9 -13561.6 -37.0534 22506.6
 24 10 2015  11 55  -14.6289 17961.9 -13561.3 -37.0527 22506.4
 24 10 2015  11 56  -14.6293 17962.1 -13561.0 -37.0519 22506.3
 24 10 2015  11 57  -14.6298 17962.1 -13561.0 -37.0518 22506.4
 24 10 2015  11 58  -14.6305 17962.1 -13560.4 -37.0508 22506.0
 24 10 2015  11 59  -14.6310 17962.5 -13560.5 -37.0502 22506.4
 24 10 2015  12 00  -14.6315 17962.8 -13560.0 -37.0488 22506.4
 24 10 2015  12 01  -14.6317 17963.2 -13559.5 -37.0473 22506.4
 24 10 2015  12 02  -14.6322 17963.3 -13559.7 -37.0474 22506.6
 24 10 2015  12 03  -14.6325 17963.4 -13559.3 -37.0466 22506.4
 24 10 2015  12 04  -14.6326 17963.4 -13559.1 -37.0460 22506.3
 24 10 2015  12 05  -14.6328 17963.2 -13558.8 -37.0458 22505.9
 24 10 2015  12 06  -14.6332 17962.8 -13558.4 -37.0456 22505.4
 24 10 2015  12 07  -14.6338 17962.6 -13558.3 -37.0456 22505.1
 24 10 2015  12 08  -14.6342 17962.4 -13558.1 -37.0456 22504.9
 24 10 2015  12 09  -14.6347 17962.2 -13557.6 -37.0449 22504.4
 24 10 2015  12 10  -14.6353 17962.2 -13557.7 -37.0451 22504.4
 24 10 2015  12 11  -14.6360 17962.3 -13557.5 -37.0446 22504.4
 24 10 2015  12 12  -14.6364 17962.6 -13557.7 -37.0443 22504.8
 24 10 2015  12 13  -14.6366 17962.8 -13557.1 -37.0428 22504.6
 24 10 2015  12 14  -14.6369 17963.0 -13557.1 -37.0425 22504.8
 24 10 2015  12 15  -14.6368 17963.2 -13557.0 -37.0421 22504.9
 24 10 2015  12 16  -14.6366 17963.5 -13556.7 -37.0411 22504.9
 24 10 2015  12 17  -14.6361 17963.6 -13556.7 -37.0409 22505.0
 24 10 2015  12 18  -14.6356 17963.6 -13556.4 -37.0402 22504.8
 24 10 2015  12 19  -14.6356 17963.4 -13556.1 -37.0399 22504.5
 24 10 2015  12 20  -14.6353 17963.5 -13555.8 -37.0392 22504.4
 24 10 2015  12 21  -14.6352 17963.4 -13555.7 -37.0393 22504.2
 24 10 2015  12 22  -14.6353 17963.4 -13555.6 -37.0390 22504.2
 24 10 2015  12 23  -14.6358 17963.3 -13555.5 -37.0390 22504.0
 24 10 2015  12 24  -14.6363 17963.2 -13555.3 -37.0387 22503.9
 24 10 2015  12 25  -14.6364 17963.6 -13555.1 -37.0377 22504.1
 24 10 2015  12 26  -14.6363 17963.8 -13554.9 -37.0369 22504.1
 24 10 2015  12 27  -14.6366 17963.9 -13554.7 -37.0364 22504.0
 24 10 2015  12 28  -14.6362 17964.5 -13554.6 -37.0352 22504.4
 24 10 2015  12 29  -14.6362 17964.9 -13554.1 -37.0337 22504.5
 24 10 2015  12 30  -14.6362 17965.2 -13553.8 -37.0327 22504.5
 24 10 2015  12 31  -14.6361 17965.4 -13553.5 -37.0316 22504.5
 24 10 2015  12 32  -14.6363 17965.3 -13553.1 -37.0309 22504.2
 24 10 2015  12 33  -14.6363 17965.4 -13553.0 -37.0306 22504.2
 24 10 2015  12 34  -14.6363 17965.5 -13552.7 -37.0299 22504.2
 24 10 2015  12 35  -14.6361 17965.8 -13552.4 -37.0289 22504.2
 24 10 2015  12 36  -14.6356 17965.9 -13552.3 -37.0285 22504.2
 24 10 2015  12 37  -14.6355 17965.9 -13551.9 -37.0277 22504.0
 24 10 2015  12 38  -14.6359 17965.9 -13551.6 -37.0271 22503.7
 24 10 2015  12 39  -14.6362 17965.7 -13551.2 -37.0266 22503.4
 24 10 2015  12 40  -14.6362 17965.7 -13551.3 -37.0268 22503.4
 24 10 2015  12 41  -14.6359 17965.9 -13551.1 -37.0260 22503.4
 24 10 2015  12 42  -14.6357 17966.1 -13550.7 -37.0249 22503.4
 24 10 2015  12 43  -14.6352 17966.4 -13550.7 -37.0243 22503.6
 24 10 2015  12 44  -14.6341 17966.9 -13550.6 -37.0233 22504.0
 24 10 2015  12 45  -14.6325 17967.6 -13550.4 -37.0218 22504.4
 24 10 2015  12 46  -14.6317 17968.0 -13550.4 -37.0213 22504.7
 24 10 2015  12 47  -14.6307 17968.5 -13550.1 -37.0199 22505.0
 24 10 2015  12 48  -14.6298 17968.8 -13549.9 -37.0190 22505.1
 24 10 2015  12 49  -14.6288 17969.1 -13549.8 -37.0184 22505.2
 24 10 2015  12 50  -14.6278 17969.2 -13549.4 -37.0174 22505.0
 24 10 2015  12 51  -14.6269 17969.3 -13549.3 -37.0171 22505.0
 24 10 2015  12 52  -14.6266 17968.9 -13548.9 -37.0169 22504.6
 24 10 2015  12 53  -14.6261 17968.9 -13548.8 -37.0168 22504.5
 24 10 2015  12 54  -14.6254 17968.6 -13548.7 -37.0168 22504.2
 24 10 2015  12 55  -14.6252 17968.3 -13548.7 -37.0174 22503.9
 24 10 2015  12 56  -14.6243 17968.2 -13548.6 -37.0174 22503.8
 24 10 2015  12 57  -14.6239 17968.1 -13548.6 -37.0175 22503.7
 24 10 2015  12 58  -14.6233 17968.1 -13548.5 -37.0173 22503.6
 24 10 2015  12 59  -14.6226 17968.1 -13548.4 -37.0172 22503.6
 24 10 2015  13 00  -14.6219 17968.5 -13548.3 -37.0163 22503.8
 24 10 2015  13 01  -14.6210 17968.9 -13548.4 -37.0159 22504.2
 24 10 2015  13 02  -14.6201 17969.3 -13548.3 -37.0151 22504.5
 24 10 2015  13 03  -14.6187 17970.2 -13548.3 -37.0138 22505.2
 24 10 2015  13 04  -14.6170 17971.2 -13548.6 -37.0128 22506.2
 24 10 2015  13 05  -14.6147 17972.5 -13548.6 -37.0108 22507.2
 24 10 2015  13 06  -14.6121 17973.4 -13548.4 -37.0091 22507.8
 24 10 2015  13 07  -14.6101 17973.7 -13548.3 -37.0084 22508.0
 24 10 2015  13 08  -14.6087 17974.1 -13548.2 -37.0074 22508.2
 24 10 2015  13 09  -14.6070 17974.8 -13548.0 -37.0061 22508.7
 24 10 2015  13 10  -14.6054 17975.5 -13548.1 -37.0051 22509.3
 24 10 2015  13 11  -14.6036 17976.4 -13548.0 -37.0037 22510.0
 24 10 2015  13 12  -14.6024 17976.7 -13547.9 -37.0029 22510.1
 24 10 2015  13 13  -14.5999 17977.3 -13547.8 -37.0018 22510.6
 24 10 2015  13 14  -14.5983 17977.5 -13547.5 -37.0009 22510.6
 24 10 2015  13 15  -14.5988 17976.6 -13546.9 -37.0012 22509.5
 24 10 2015  13 16  -14.5987 17976.1 -13546.6 -37.0011 22508.9
 24 10 2015  13 17  -14.5986 17975.7 -13546.8 -37.0023 22508.7
 24 10 2015  13 18  -14.5982 17975.6 -13546.5 -37.0018 22508.4
 24 10 2015  13 19  -14.5972 17975.9 -13546.4 -37.0012 22508.6
 24 10 2015  13 20  -14.5966 17975.9 -13546.5 -37.0014 22508.7
 24 10 2015  13 21  -14.5959 17976.0 -13546.6 -37.0015 22508.8
 24 10 2015  13 22  -14.5953 17975.8 -13546.4 -37.0013 22508.5
 24 10 2015  13 23  -14.5947 17975.6 -13546.5 -37.0018 22508.4
 24 10 2015  13 24  -14.5943 17975.4 -13546.4 -37.0019 22508.2
 24 10 2015  13 25  -14.5936 17975.3 -13546.5 -37.0022 22508.2
 24 10 2015  13 26  -14.5922 17975.4 -13546.5 -37.0021 22508.3
 24 10 2015  13 27  -14.5915 17975.3 -13546.5 -37.0024 22508.2
 24 10 2015  13 28  -14.5909 17975.1 -13546.7 -37.0030 22508.1
 24 10 2015  13 29  -14.5903 17975.0 -13546.7 -37.0031 22508.1
 24 10 2015  13 30  -14.5892 17975.2 -13546.8 -37.0029 22508.2
 24 10 2015  13 31  -14.5883 17975.2 -13546.7 -37.0028 22508.2
 24 10 2015  13 32  -14.5871 17975.5 -13546.7 -37.0024 22508.5
 24 10 2015  13 33  -14.5862 17975.7 -13546.6 -37.0019 22508.6
 24 10 2015  13 34  -14.5845 17976.2 -13546.8 -37.0015 22509.1
 24 10 2015  13 35  -14.5825 17976.6 -13547.0 -37.0012 22509.6
 24 10 2015  13 36  -14.5808 17977.0 -13547.0 -37.0006 22509.9
 24 10 2015  13 37  -14.5788 17977.4 -13547.1 -37.0002 22510.2
 24 10 2015  13 38  -14.5772 17977.8 -13547.0 -36.9993 22510.5
 24 10 2015  13 39  -14.5754 17977.9 -13546.9 -36.9991 22510.5
 24 10 2015  13 40  -14.5734 17978.3 -13547.0 -36.9985 22510.9
 24 10 2015  13 41  -14.5715 17978.8 -13547.1 -36.9980 22511.3
 24 10 2015  13 42  -14.5692 17979.4 -13547.1 -36.9971 22511.8
 24 10 2015  13 43  -14.5679 17979.4 -13547.0 -36.9969 22511.8
 24 10 2015  13 44  -14.5660 17979.8 -13546.9 -36.9962 22512.0
 24 10 2015  13 45  -14.5645 17979.7 -13546.6 -36.9958 22511.8
 24 10 2015  13 46  -14.5632 17979.6 -13546.6 -36.9960 22511.7
 24 10 2015  13 47  -14.5619 17979.4 -13546.6 -36.9961 22511.5
 24 10 2015  13 48  -14.5615 17979.0 -13546.2 -36.9959 22511.0
 24 10 2015  13 49  -14.5600 17979.4 -13546.5 -36.9959 22511.4
 24 10 2015  13 50  -14.5570 17980.5 -13546.6 -36.9945 22512.4
 24 10 2015  13 51  -14.5537 17981.4 -13546.7 -36.9931 22513.2
 24 10 2015  13 52  -14.5514 17981.5 -13546.6 -36.9930 22513.3
 24 10 2015  13 53  -14.5491 17981.6 -13546.5 -36.9927 22513.3
 24 10 2015  13 54  -14.5483 17980.9 -13546.3 -36.9934 22512.5
 24 10 2015  13 55  -14.5481 17979.9 -13546.5 -36.9951 22511.9
 24 10 2015  13 56  -14.5462 17980.0 -13546.4 -36.9949 22511.8
 24 10 2015  13 57  -14.5445 17979.9 -13546.5 -36.9952 22511.8
 24 10 2015  13 58  -14.5442 17979.2 -13546.4 -36.9960 22511.3
 24 10 2015  13 59  -14.5427 17979.8 -13546.3 -36.9948 22511.7
 24 10 2015  14 00  -14.5411 17980.2 -13546.6 -36.9950 22512.2
 24 10 2015  14 01  -14.5399 17980.1 -13546.4 -36.9947 22511.9
 24 10 2015  14 02  -14.5386 17980.4 -13546.4 -36.9942 22512.2
 24 10 2015  14 03  -14.5370 17980.4 -13546.4 -36.9942 22512.2
 24 10 2015  14 04  -14.5359 17980.2 -13546.2 -36.9942 22511.9
 24 10 2015  14 05  -14.5361 17979.6 -13546.2 -36.9950 22511.4
 24 10 2015  14 06  -14.5357 17979.0 -13546.1 -36.9957 22510.9
 24 10 2015  14 07  -14.5354 17978.9 -13546.0 -36.9958 22510.8
 24 10 2015  14 08  -14.5365 17978.3 -13546.0 -36.9968 22510.3
 24 10 2015  14 09  -14.5368 17978.4 -13546.0 -36.9965 22510.4
 24 10 2015  14 10  -14.5359 17978.8 -13546.2 -36.9962 22510.8
 24 10 2015  14 11  -14.5341 17979.5 -13546.2 -36.9951 22511.4
 24 10 2015  14 12  -14.5321 17980.7 -13546.4 -36.9936 22512.5
 24 10 2015  14 13  -14.5296 17982.0 -13546.4 -36.9917 22513.5
 24 10 2015  14 14  -14.5262 17983.5 -13546.5 -36.9897 22514.7
 24 10 2015  14 15  -14.5229 17984.1 -13546.3 -36.9883 22515.1
 24 10 2015  14 16  -14.5219 17983.6 -13545.9 -36.9883 22514.4
 24 10 2015  14 17  -14.5197 17984.6 -13545.8 -36.9866 22515.2
 24 10 2015  14 18  -14.5173 17984.8 -13545.6 -36.9859 22515.3
 24 10 2015  14 19  -14.5146 17984.9 -13545.6 -36.9856 22515.3
 24 10 2015  14 20  -14.5138 17983.9 -13545.3 -36.9866 22514.4
 24 10 2015  14 21  -14.5131 17982.9 -13545.0 -36.9875 22513.4
 24 10 2015  14 22  -14.5099 17983.7 -13545.1 -36.9866 22514.1
 24 10 2015  14 23  -14.5045 17985.5 -13545.4 -36.9845 22515.7
 24 10 2015  14 24  -14.5036 17984.2 -13545.2 -36.9859 22514.6
 24 10 2015  14 25  -14.5041 17983.4 -13544.9 -36.9865 22513.7
 24 10 2015  14 26  -14.5065 17981.6 -13544.5 -36.9886 22512.0
 24 10 2015  14 27  -14.5083 17980.3 -13544.3 -36.9901 22510.9
 24 10 2015  14 28  -14.5093 17979.5 -13543.8 -36.9904 22509.9
 24 10 2015  14 29  -14.5090 17979.2 -13544.1 -36.9915 22509.9
 24 10 2015  14 30  -14.5088 17979.1 -13544.5 -36.9923 22510.0
 24 10 2015  14 31  -14.5063 17980.5 -13544.5 -36.9903 22511.1
 24 10 2015  14 32  -14.5021 17982.1 -13545.0 -36.9889 22512.7
 24 10 2015  14 33  -14.4983 17982.7 -13545.2 -36.9881 22513.3
 24 10 2015  14 34  -14.4963 17983.1 -13545.0 -36.9872 22513.6
 24 10 2015  14 35  -14.4952 17982.9 -13544.7 -36.9870 22513.2
 24 10 2015  14 36  -14.4931 17983.0 -13544.5 -36.9865 22513.2
 24 10 2015  14 37  -14.4916 17982.7 -13544.6 -36.9871 22513.0
 24 10 2015  14 38  -14.4883 17982.7 -13544.5 -36.9868 22512.9
 24 10 2015  14 39  -14.4867 17982.2 -13544.5 -36.9875 22512.5
 24 10 2015  14 40  -14.4837 17982.5 -13544.6 -36.9873 22512.8
 24 10 2015  14 41  -14.4816 17982.9 -13544.7 -36.9868 22513.2
 24 10 2015  14 42  -14.4794 17983.7 -13544.9 -36.9861 22514.0
 24 10 2015  14 43  -14.4776 17983.8 -13544.7 -36.9855 22513.9
 24 10 2015  14 44  -14.4775 17983.3 -13544.6 -36.9862 22513.4
 24 10 2015  14 45  -14.4784 17982.4 -13544.3 -36.9870 22512.5
 24 10 2015  14 46  -14.4778 17982.8 -13544.3 -36.9863 22512.9
 24 10 2015  14 47  -14.4759 17983.5 -13544.5 -36.9855 22513.6
 24 10 2015  14 48  -14.4748 17984.0 -13544.6 -36.9851 22514.0
 24 10 2015  14 49  -14.4752 17983.6 -13544.3 -36.9850 22513.5
 24 10 2015  14 50  -14.4761 17983.2 -13544.1 -36.9853 22513.1
 24 10 2015  14 51  -14.4763 17983.3 -13544.0 -36.9849 22513.1
 24 10 2015  14 52  -14.4751 17984.2 -13544.1 -36.9837 22513.9
 24 10 2015  14 53  -14.4736 17984.9 -13544.1 -36.9828 22514.4
 24 10 2015  14 54  -14.4713 17985.5 -13544.1 -36.9816 22514.9
 24 10 2015  14 55  -14.4696 17985.2 -13543.8 -36.9817 22514.5
 24 10 2015  14 56  -14.4723 17983.1 -13543.2 -36.9836 22512.4
 24 10 2015  14 57  -14.4732 17983.0 -13543.1 -36.9834 22512.3
 24 10 2015  14 58  -14.4713 17983.2 -13543.3 -36.9836 22512.5
 24 10 2015  14 59  -14.4693 17983.7 -13543.5 -36.9832 22513.1
 24 10 2015  15 00  -14.4689 17982.9 -13543.1 -36.9837 22512.2
 24 10 2015  15 01  -14.4684 17982.3 -13542.7 -36.9839 22511.5
 24 10 2015  15 02  -14.4695 17981.6 -13542.6 -36.9847 22510.9
 24 10 2015  15 03  -14.4688 17981.9 -13542.4 -36.9838 22511.1
 24 10 2015  15 04  -14.4673 17982.3 -13542.7 -36.9838 22511.5
 24 10 2015  15 05  -14.4669 17982.0 -13542.5 -36.9839 22511.2
 24 10 2015  15 06  -14.4675 17981.2 -13542.3 -36.9848 22510.4
 24 10 2015  15 07  -14.4669 17980.9 -13542.1 -36.9849 22510.0
 24 10 2015  15 08  -14.4675 17980.8 -13542.1 -36.9849 22509.9
 24 10 2015  15 09  -14.4667 17980.9 -13542.1 -36.9847 22510.0
 24 10 2015  15 10  -14.4656 17980.9 -13542.1 -36.9847 22510.0
 24 10 2015  15 11  -14.4654 17980.6 -13542.0 -36.9849 22509.7
 24 10 2015  15 12  -14.4648 17980.4 -13542.0 -36.9851 22509.6
 24 10 2015  15 13  -14.4642 17980.3 -13542.0 -36.9854 22509.5
 24 10 2015  15 14  -14.4632 17980.2 -13542.1 -36.9858 22509.5
 24 10 2015  15 15  -14.4624 17979.7 -13542.0 -36.9864 22509.0
 24 10 2015  15 16  -14.4601 17980.0 -13542.2 -36.9861 22509.4
 24 10 2015  15 17  -14.4586 17980.0 -13542.2 -36.9863 22509.4
 24 10 2015  15 18  -14.4561 17979.9 -13542.5 -36.9871 22509.5
 24 10 2015  15 19  -14.4540 17979.7 -13542.4 -36.9873 22509.2
 24 10 2015  15 20  -14.4553 17979.0 -13542.4 -36.9881 22508.7
 24 10 2015  15 21  -14.4539 17979.4 -13542.5 -36.9879 22509.1
 24 10 2015  15 22  -14.4555 17978.8 -13542.5 -36.9886 22508.6
 24 10 2015  15 23  -14.4569 17978.9 -13542.5 -36.9886 22508.7
 24 10 2015  15 24  -14.4558 17979.6 -13542.7 -36.9879 22509.3
 24 10 2015  15 25  -14.4544 17980.1 -13542.8 -36.9873 22509.8
 24 10 2015  15 26  -14.4517 17981.0 -13543.1 -36.9865 22510.7
 24 10 2015  15 27  -14.4470 17983.0 -13543.4 -36.9841 22512.5
 24 10 2015  15 28  -14.4436 17984.0 -13543.6 -36.9830 22513.4
 24 10 2015  15 29  -14.4372 17985.7 -13543.8 -36.9807 22514.9
 24 10 2015  15 30  -14.4309 17987.4 -13544.0 -36.9786 22516.4
 24 10 2015  15 31  -14.4242 17989.0 -13544.2 -36.9767 22517.8
 24 10 2015  15 32  -14.4181 17989.8 -13544.3 -36.9756 22518.5
 24 10 2015  15 33  -14.4148 17989.6 -13544.1 -36.9755 22518.2
 24 10 2015  15 34  -14.4145 17988.3 -13543.6 -36.9765 22516.9
 24 10 2015  15 35  -14.4146 17987.4 -13543.4 -36.9774 22516.0
 24 10 2015  15 36  -14.4155 17986.5 -13543.2 -36.9784 22515.1
 24 10 2015  15 37  -14.4170 17985.1 -13543.2 -36.9806 22514.1
 24 10 2015  15 38  -14.4186 17983.8 -13543.1 -36.9822 22512.9
 24 10 2015  15 39  -14.4197 17982.5 -13543.0 -36.9841 22511.8
 24 10 2015  15 40  -14.4206 17981.4 -13543.1 -36.9859 22511.0
 24 10 2015  15 41  -14.4215 17980.8 -13543.2 -36.9872 22510.6
 24 10 2015  15 42  -14.4222 17980.4 -13543.4 -36.9882 22510.4
 24 10 2015  15 43  -14.4231 17979.7 -13543.7 -36.9897 22510.0
 24 10 2015  15 44  -14.4237 17979.3 -13543.9 -36.9907 22509.8
 24 10 2015  15 45  -14.4239 17979.2 -13544.0 -36.9911 22509.8
 24 10 2015  15 46  -14.4228 17979.5 -13544.3 -36.9914 22510.2
 24 10 2015  15 47  -14.4197 17980.4 -13544.6 -36.9906 22511.2
 24 10 2015  15 48  -14.4171 17980.4 -13544.6 -36.9906 22511.1
 24 10 2015  15 49  -14.4195 17978.7 -13544.4 -36.9927 22509.7
 24 10 2015  15 50  -14.4209 17978.0 -13544.3 -36.9936 22509.0
 24 10 2015  15 51  -14.4217 17977.4 -13544.4 -36.9948 22508.6
 24 10 2015  15 52  -14.4211 17977.2 -13544.7 -36.9956 22508.6
 24 10 2015  15 53  -14.4199 17977.4 -13544.9 -36.9956 22508.9
 24 10 2015  15 54  -14.4195 17977.4 -13545.1 -36.9962 22509.0
 24 10 2015  15 55  -14.4196 17977.4 -13545.2 -36.9965 22509.1
 24 10 2015  15 56  -14.4183 17977.7 -13545.5 -36.9965 22509.5
 24 10 2015  15 57  -14.4159 17978.6 -13545.7 -36.9955 22510.3
 24 10 2015  15 58  -14.4135 17978.8 -13545.8 -36.9956 22510.6
 24 10 2015  15 59  -14.4132 17978.6 -13545.9 -36.9960 22510.5
 24 10 2015  16 00  -14.4127 17978.4 -13545.9 -36.9963 22510.3
 24 10 2015  16 01  -14.4124 17978.1 -13545.9 -36.9967 22510.1
 24 10 2015  16 02  -14.4116 17978.2 -13545.9 -36.9967 22510.1
 24 10 2015  16 03  -14.4104 17978.5 -13546.4 -36.9971 22510.6
 24 10 2015  16 04  -14.4091 17978.7 -13546.4 -36.9968 22510.8
 24 10 2015  16 05  -14.4074 17978.9 -13546.5 -36.9968 22511.1
 24 10 2015  16 06  -14.4067 17978.7 -13546.5 -36.9971 22510.9
 24 10 2015  16 07  -14.4069 17978.2 -13546.5 -36.9978 22510.5
 24 10 2015  16 08  -14.4064 17978.1 -13546.5 -36.9979 22510.4
 24 10 2015  16 09  -14.4056 17978.0 -13546.5 -36.9980 22510.3
 24 10 2015  16 10  -14.4049 17978.0 -13546.6 -36.9983 22510.5
 24 10 2015  16 11  -14.4035 17978.3 -13546.8 -36.9983 22510.8
 24 10 2015  16 12  -14.4026 17978.3 -13546.8 -36.9983 22510.7
 24 10 2015  16 13  -14.4012 17978.4 -13546.9 -36.9983 22510.9
 24 10 2015  16 14  -14.4000 17978.4 -13547.0 -36.9984 22510.9
 24 10 2015  16 15  -14.3991 17978.2 -13547.1 -36.9990 22510.9
 24 10 2015  16 16  -14.3993 17977.7 -13547.0 -36.9995 22510.4
 24 10 2015  16 17  -14.3994 17977.3 -13546.9 -36.9999 22510.1
 24 10 2015  16 18  -14.3997 17976.9 -13546.9 -37.0007 22509.7
 24 10 2015  16 19  -14.4004 17976.4 -13546.9 -37.0014 22509.3
 24 10 2015  16 20  -14.4012 17976.2 -13546.9 -37.0018 22509.2
 24 10 2015  16 21  -14.4010 17976.2 -13547.1 -37.0021 22509.3
 24 10 2015  16 22  -14.4005 17976.2 -13547.2 -37.0023 22509.3
 24 10 2015  16 23  -14.4006 17975.8 -13547.3 -37.0030 22509.1
 24 10 2015  16 24  -14.4010 17975.6 -13547.4 -37.0036 22509.0
 24 10 2015  16 25  -14.4009 17975.4 -13547.5 -37.0040 22508.9
 24 10 2015  16 26  -14.4007 17975.4 -13547.4 -37.0040 22508.8
 24 10 2015  16 27  -14.3999 17975.5 -13547.5 -37.0039 22509.0
 24 10 2015  16 28  -14.3995 17975.5 -13547.8 -37.0044 22509.1
 24 10 2015  16 29  -14.3993 17975.4 -13547.9 -37.0050 22509.2
 24 10 2015  16 30  -14.3988 17975.5 -13548.0 -37.0050 22509.3
 24 10 2015  16 31  -14.3989 17975.3 -13548.1 -37.0056 22509.1
 24 10 2015  16 32  -14.3991 17975.0 -13548.1 -37.0060 22508.9
 24 10 2015  16 33  -14.3989 17974.8 -13548.3 -37.0066 22508.9
 24 10 2015  16 34  -14.3987 17974.7 -13548.4 -37.0071 22508.8
 24 10 2015  16 35  -14.3989 17974.5 -13548.5 -37.0075 22508.8
 24 10 2015  16 36  -14.3987 17974.5 -13548.7 -37.0079 22508.9
 24 10 2015  16 37  -14.3982 17974.7 -13548.7 -37.0077 22509.0
 24 10 2015  16 38  -14.3978 17974.8 -13548.9 -37.0078 22509.2
 24 10 2015  16 39  -14.3971 17974.8 -13549.0 -37.0081 22509.3
 24 10 2015  16 40  -14.3958 17975.0 -13549.1 -37.0081 22509.5
 24 10 2015  16 41  -14.3958 17974.7 -13549.1 -37.0083 22509.3
 24 10 2015  16 42  -14.3964 17974.4 -13549.0 -37.0087 22509.0
 24 10 2015  16 43  -14.3971 17974.2 -13549.2 -37.0094 22509.0
 24 10 2015  16 44  -14.3974 17974.1 -13549.2 -37.0096 22508.9
 24 10 2015  16 45  -14.3979 17973.7 -13549.3 -37.0103 22508.6
 24 10 2015  16 46  -14.3972 17973.4 -13549.4 -37.0111 22508.4
 24 10 2015  16 47  -14.3972 17973.1 -13549.5 -37.0118 22508.2
 24 10 2015  16 48  -14.3967 17973.0 -13549.6 -37.0121 22508.2
 24 10 2015  16 49  -14.3975 17972.7 -13549.6 -37.0126 22508.0
 24 10 2015  16 50  -14.3992 17972.6 -13549.7 -37.0129 22508.0
 24 10 2015  16 51  -14.4013 17972.3 -13549.7 -37.0133 22507.8
 24 10 2015  16 52  -14.4016 17972.7 -13549.9 -37.0131 22508.1
 24 10 2015  16 53  -14.3989 17973.4 -13550.1 -37.0125 22508.8
 24 10 2015  16 54  -14.3955 17974.1 -13550.4 -37.0121 22509.5
 24 10 2015  16 55  -14.3938 17974.0 -13550.5 -37.0123 22509.6
 24 10 2015  16 56  -14.3935 17973.6 -13550.6 -37.0131 22509.3
 24 10 2015  16 57  -14.3937 17973.1 -13550.4 -37.0137 22508.8
 24 10 2015  16 58  -14.3945 17972.5 -13550.4 -37.0144 22508.3
 24 10 2015  16 59  -14.3960 17972.0 -13550.5 -37.0153 22508.0
 24 10 2015  17 00  -14.3963 17972.1 -13550.7 -37.0156 22508.2
 24 10 2015  17 01  -14.3977 17971.1 -13550.6 -37.0170 22507.3
 24 10 2015  17 02  -14.3970 17971.4 -13551.0 -37.0172 22507.8
 24 10 2015  17 03  -14.3990 17970.3 -13551.1 -37.0192 22507.0
 24 10 2015  17 04  -14.4008 17969.8 -13551.2 -37.0202 22506.6
 24 10 2015  17 05  -14.3990 17970.4 -13551.4 -37.0197 22507.3
 24 10 2015  17 06  -14.3996 17970.2 -13551.7 -37.0206 22507.2
 24 10 2015  17 07  -14.3990 17970.4 -13551.8 -37.0206 22507.5
 24 10 2015  17 08  -14.4008 17969.4 -13551.9 -37.0222 22506.7
 24 10 2015  17 09  -14.4013 17969.1 -13552.0 -37.0230 22506.6
 24 10 2015  17 10  -14.4026 17968.7 -13552.1 -37.0238 22506.3
 24 10 2015  17 11  -14.4026 17968.7 -13552.4 -37.0243 22506.5
 24 10 2015  17 12  -14.4034 17968.3 -13552.4 -37.0248 22506.2
 24 10 2015  17 13  -14.4034 17968.3 -13552.6 -37.0254 22506.2
 24 10 2015  17 14  -14.4037 17968.3 -13552.9 -37.0260 22506.4
 24 10 2015  17 15  -14.4037 17968.3 -13552.9 -37.0261 22506.5
 24 10 2015  17 16  -14.4040 17968.0 -13553.3 -37.0272 22506.5
 24 10 2015  17 17  -14.4044 17967.9 -13553.3 -37.0274 22506.3
 24 10 2015  17 18  -14.4044 17967.8 -13553.5 -37.0280 22506.4
 24 10 2015  17 19  -14.4044 17967.6 -13553.7 -37.0286 22506.3
 24 10 2015  17 20  -14.4042 17967.6 -13553.9 -37.0290 22506.5
 24 10 2015  17 21  -14.4041 17967.7 -13554.2 -37.0295 22506.7
 24 10 2015  17 22  -14.4043 17967.7 -13554.2 -37.0295 22506.8
 24 10 2015  17 23  -14.4045 17967.7 -13554.4 -37.0300 22506.9
 24 10 2015  17 24  -14.4050 17967.5 -13554.4 -37.0303 22506.8
 24 10 2015  17 25  -14.4051 17967.3 -13554.5 -37.0308 22506.7
 24 10 2015  17 26  -14.4054 17967.1 -13554.8 -37.0315 22506.7
 24 10 2015  17 27  -14.4058 17966.9 -13554.9 -37.0321 22506.6
 24 10 2015  17 28  -14.4059 17966.6 -13555.1 -37.0329 22506.4
 24 10 2015  17 29  -14.4061 17966.3 -13555.2 -37.0336 22506.2
 24 10 2015  17 30  -14.4069 17965.9 -13555.0 -37.0338 22505.8
 24 10 2015  17 31  -14.4080 17965.6 -13555.1 -37.0345 22505.6
 24 10 2015  17 32  -14.4088 17965.3 -13555.2 -37.0353 22505.5
 24 10 2015  17 33  -14.4089 17965.3 -13555.4 -37.0356 22505.5
 24 10 2015  17 34  -14.4090 17965.0 -13555.3 -37.0359 22505.3
 24 10 2015  17 35  -14.4094 17964.7 -13555.3 -37.0363 22505.1
 24 10 2015  17 36  -14.4099 17964.5 -13555.4 -37.0369 22505.0
 24 10 2015  17 37  -14.4103 17964.3 -13555.5 -37.0375 22504.9
 24 10 2015  17 38  -14.4111 17963.8 -13555.4 -37.0380 22504.4
 24 10 2015  17 39  -14.4112 17963.4 -13555.6 -37.0390 22504.2
 24 10 2015  17 40  -14.4119 17963.0 -13555.6 -37.0396 22503.9
 24 10 2015  17 41  -14.4127 17962.7 -13555.7 -37.0402 22503.7
 24 10 2015  17 42  -14.4129 17962.5 -13555.6 -37.0404 22503.5
 24 10 2015  17 43  -14.4135 17962.3 -13555.8 -37.0411 22503.4
 24 10 2015  17 44  -14.4136 17962.1 -13555.9 -37.0416 22503.3
 24 10 2015  17 45  -14.4143 17961.7 -13556.0 -37.0422 22503.1
 24 10 2015  17 46  -14.4148 17961.3 -13556.0 -37.0430 22502.8
 24 10 2015  17 47  -14.4150 17961.0 -13556.1 -37.0438 22502.6
 24 10 2015  17 48  -14.4163 17960.2 -13556.1 -37.0448 22501.9
 24 10 2015  17 49  -14.4177 17959.7 -13556.1 -37.0457 22501.5
 24 10 2015  17 50  -14.4189 17959.4 -13556.2 -37.0463 22501.4
 24 10 2015  17 51  -14.4192 17959.5 -13556.3 -37.0465 22501.5
 24 10 2015  17 52  -14.4182 17959.8 -13556.6 -37.0465 22501.9
 24 10 2015  17 53  -14.4175 17959.7 -13556.8 -37.0471 22502.0
 24 10 2015  17 54  -14.4171 17959.6 -13556.9 -37.0476 22501.9
 24 10 2015  17 55  -14.4170 17959.0 -13557.1 -37.0487 22501.6
 24 10 2015  17 56  -14.4172 17958.8 -13557.1 -37.0490 22501.4
 24 10 2015  17 57  -14.4173 17958.6 -13557.4 -37.0500 22501.4
