CACHOEIRA PAULISTA EMBRACE-05 <163> 1 Min. Reported data

 DD MM YYYY  HH MM   D(Deg)  H(nT)   Z(nT)   I(Deg)   F(nT)

 12 06 2015  00 00  -21.5825 18622.7 -13745.7 -36.4315 23146.2
 12 06 2015  00 01  -21.5824 18622.7 -13745.7 -36.4314 23146.2
 12 06 2015  00 02  -21.5821 18622.8 -13745.7 -36.4314 23146.3
 12 06 2015  00 03  -21.5817 18622.8 -13745.6 -36.4313 23146.3
 12 06 2015  00 04  -21.5815 18622.7 -13745.7 -36.4315 23146.3
 12 06 2015  00 05  -21.5809 18623.0 -13745.7 -36.4311 23146.5
 12 06 2015  00 06  -21.5809 18623.1 -13745.7 -36.4308 23146.5
 12 06 2015  00 07  -21.5813 18622.8 -13745.6 -36.4312 23146.3
 12 06 2015  00 08  -21.5813 18622.7 -13745.6 -36.4314 23146.2
 12 06 2015  00 09  -21.5810 18622.6 -13745.7 -36.4316 23146.2
 12 06 2015  00 10  -21.5808 18622.5 -13745.7 -36.4318 23146.1
 12 06 2015  00 11  -21.5807 18622.5 -13745.7 -36.4319 23146.1
 12 06 2015  00 12  -21.5809 18622.5 -13745.7 -36.4318 23146.1
 12 06 2015  00 13  -21.5811 18622.5 -13745.7 -36.4317 23146.1
 12 06 2015  00 14  -21.5810 18622.8 -13745.7 -36.4313 23146.3
 12 06 2015  00 15  -21.5810 18622.9 -13745.6 -36.4311 23146.4
 12 06 2015  00 16  -21.5809 18623.1 -13745.6 -36.4307 23146.5
 12 06 2015  00 17  -21.5808 18623.2 -13745.5 -36.4304 23146.6
 12 06 2015  00 18  -21.5809 18623.3 -13745.5 -36.4303 23146.6
 12 06 2015  00 19  -21.5809 18623.4 -13745.4 -36.4300 23146.7
 12 06 2015  00 20  -21.5807 18623.6 -13745.4 -36.4297 23146.8
 12 06 2015  00 21  -21.5803 18623.8 -13745.4 -36.4293 23146.9
 12 06 2015  00 22  -21.5801 18623.8 -13745.4 -36.4293 23146.9
 12 06 2015  00 23  -21.5802 18623.8 -13745.4 -36.4292 23147.0
 12 06 2015  00 24  -21.5801 18623.9 -13745.4 -36.4292 23147.0
 12 06 2015  00 25  -21.5802 18623.8 -13745.4 -36.4293 23147.0
 12 06 2015  00 26  -21.5802 18623.7 -13745.4 -36.4295 23146.9
 12 06 2015  00 27  -21.5804 18623.5 -13745.5 -36.4298 23146.8
 12 06 2015  00 28  -21.5804 18623.4 -13745.5 -36.4301 23146.7
 12 06 2015  00 29  -21.5801 18623.3 -13745.5 -36.4302 23146.6
 12 06 2015  00 30  -21.5802 18623.3 -13745.6 -36.4304 23146.6
 12 06 2015  00 31  -21.5802 18623.2 -13745.6 -36.4306 23146.6
 12 06 2015  00 32  -21.5807 18622.9 -13745.6 -36.4309 23146.4
 12 06 2015  00 33  -21.5808 18622.9 -13745.6 -36.4310 23146.3
 12 06 2015  00 34  -21.5807 18622.9 -13745.6 -36.4311 23146.4
 12 06 2015  00 35  -21.5804 18622.8 -13745.6 -36.4311 23146.3
 12 06 2015  00 36  -21.5800 18622.8 -13745.6 -36.4312 23146.3
 12 06 2015  00 37  -21.5797 18622.8 -13745.7 -36.4312 23146.3
 12 06 2015  00 38  -21.5796 18622.9 -13745.6 -36.4311 23146.4
 12 06 2015  00 39  -21.5797 18622.9 -13745.6 -36.4311 23146.3
 12 06 2015  00 40  -21.5796 18622.9 -13745.6 -36.4311 23146.4
 12 06 2015  00 41  -21.5794 18622.9 -13745.7 -36.4313 23146.4
 12 06 2015  00 42  -21.5794 18622.8 -13745.7 -36.4315 23146.3
 12 06 2015  00 43  -21.5793 18622.7 -13745.8 -36.4316 23146.3
 12 06 2015  00 44  -21.5793 18622.6 -13745.8 -36.4318 23146.3
 12 06 2015  00 45  -21.5794 18622.6 -13745.8 -36.4318 23146.2
 12 06 2015  00 46  -21.5794 18622.6 -13745.8 -36.4319 23146.2
 12 06 2015  00 47  -21.5795 18622.5 -13745.8 -36.4320 23146.2
 12 06 2015  00 48  -21.5796 18622.6 -13745.8 -36.4319 23146.2
 12 06 2015  00 49  -21.5794 18622.7 -13745.8 -36.4318 23146.3
 12 06 2015  00 50  -21.5793 18622.7 -13745.8 -36.4317 23146.3
 12 06 2015  00 51  -21.5792 18622.8 -13745.7 -36.4315 23146.4
 12 06 2015  00 52  -21.5794 18622.7 -13745.7 -36.4316 23146.2
 12 06 2015  00 53  -21.5798 18622.5 -13745.7 -36.4317 23146.1
 12 06 2015  00 54  -21.5800 18622.5 -13745.7 -36.4318 23146.1
 12 06 2015  00 55  -21.5803 18622.5 -13745.7 -36.4319 23146.1
 12 06 2015  00 56  -21.5805 18622.4 -13745.7 -36.4320 23146.0
 12 06 2015  00 57  -21.5805 18622.3 -13745.7 -36.4322 23145.9
 12 06 2015  00 58  -21.5803 18622.2 -13745.7 -36.4322 23145.9
 12 06 2015  00 59  -21.5804 18622.1 -13745.8 -36.4326 23145.8
 12 06 2015  01 00  -21.5805 18621.9 -13745.8 -36.4330 23145.7
 12 06 2015  01 01  -21.5806 18621.7 -13745.8 -36.4333 23145.5
 12 06 2015  01 02  -21.5807 18621.5 -13745.9 -36.4337 23145.4
 12 06 2015  01 03  -21.5806 18621.6 -13745.9 -36.4336 23145.5
 12 06 2015  01 04  -21.5808 18621.6 -13745.9 -36.4336 23145.5
 12 06 2015  01 05  -21.5812 18621.5 -13745.9 -36.4337 23145.4
 12 06 2015  01 06  -21.5821 18621.0 -13745.9 -36.4344 23145.0
 12 06 2015  01 07  -21.5824 18620.8 -13746.0 -36.4348 23144.9
 12 06 2015  01 08  -21.5821 18621.0 -13746.0 -36.4346 23145.1
 12 06 2015  01 09  -21.5815 18621.3 -13746.0 -36.4342 23145.3
 12 06 2015  01 10  -21.5815 18621.3 -13746.1 -36.4344 23145.3
 12 06 2015  01 11  -21.5820 18621.0 -13746.2 -36.4350 23145.1
 12 06 2015  01 12  -21.5826 18620.6 -13746.2 -36.4355 23144.9
 12 06 2015  01 13  -21.5831 18620.3 -13746.2 -36.4361 23144.6
 12 06 2015  01 14  -21.5833 18620.1 -13746.3 -36.4366 23144.5
 12 06 2015  01 15  -21.5836 18619.9 -13746.4 -36.4370 23144.4
 12 06 2015  01 16  -21.5837 18619.8 -13746.4 -36.4371 23144.3
 12 06 2015  01 17  -21.5833 18619.9 -13746.4 -36.4370 23144.4
 12 06 2015  01 18  -21.5831 18619.9 -13746.4 -36.4369 23144.4
 12 06 2015  01 19  -21.5823 18620.3 -13746.3 -36.4363 23144.7
 12 06 2015  01 20  -21.5815 18620.6 -13746.3 -36.4357 23144.9
 12 06 2015  01 21  -21.5809 18620.9 -13746.2 -36.4352 23145.1
 12 06 2015  01 22  -21.5803 18621.0 -13746.2 -36.4349 23145.2
 12 06 2015  01 23  -21.5803 18621.1 -13746.1 -36.4348 23145.2
 12 06 2015  01 24  -21.5803 18621.0 -13746.2 -36.4349 23145.2
 12 06 2015  01 25  -21.5806 18620.8 -13746.2 -36.4352 23145.0
 12 06 2015  01 26  -21.5809 18620.7 -13746.2 -36.4353 23144.9
 12 06 2015  01 27  -21.5809 18620.6 -13746.2 -36.4355 23144.9
 12 06 2015  01 28  -21.5808 18620.6 -13746.2 -36.4355 23144.9
 12 06 2015  01 29  -21.5807 18620.6 -13746.1 -36.4355 23144.8
 12 06 2015  01 30  -21.5808 18620.5 -13746.1 -36.4356 23144.8
 12 06 2015  01 31  -21.5807 18620.6 -13746.1 -36.4354 23144.8
 12 06 2015  01 32  -21.5807 18620.6 -13746.1 -36.4354 23144.8
 12 06 2015  01 33  -21.5808 18620.6 -13746.1 -36.4354 23144.8
 12 06 2015  01 34  -21.5808 18620.6 -13746.0 -36.4353 23144.7
 12 06 2015  01 35  -21.5812 18620.4 -13746.0 -36.4354 23144.6
 12 06 2015  01 36  -21.5813 18620.4 -13745.9 -36.4354 23144.6
 12 06 2015  01 37  -21.5813 18620.4 -13745.9 -36.4355 23144.5
 12 06 2015  01 38  -21.5810 18620.4 -13746.0 -36.4354 23144.6
 12 06 2015  01 39  -21.5806 18620.5 -13746.0 -36.4354 23144.6
 12 06 2015  01 40  -21.5804 18620.7 -13745.9 -36.4350 23144.8
 12 06 2015  01 41  -21.5803 18620.8 -13745.9 -36.4347 23144.8
 12 06 2015  01 42  -21.5798 18621.1 -13745.9 -36.4343 23145.0
 12 06 2015  01 43  -21.5793 18621.2 -13745.8 -36.4338 23145.1
 12 06 2015  01 44  -21.5791 18621.3 -13745.8 -36.4337 23145.2
 12 06 2015  01 45  -21.5792 18621.4 -13745.7 -36.4334 23145.2
 12 06 2015  01 46  -21.5791 18621.5 -13745.7 -36.4331 23145.3
 12 06 2015  01 47  -21.5788 18621.8 -13745.6 -36.4326 23145.5
 12 06 2015  01 48  -21.5789 18622.0 -13745.6 -36.4323 23145.6
 12 06 2015  01 49  -21.5792 18622.1 -13745.5 -36.4320 23145.6
 12 06 2015  01 50  -21.5798 18622.2 -13745.4 -36.4317 23145.7
 12 06 2015  01 51  -21.5803 18622.2 -13745.4 -36.4316 23145.7
 12 06 2015  01 52  -21.5809 18622.2 -13745.4 -36.4316 23145.6
 12 06 2015  01 53  -21.5812 18622.1 -13745.3 -36.4316 23145.5
 12 06 2015  01 54  -21.5814 18622.0 -13745.3 -36.4317 23145.5
 12 06 2015  01 55  -21.5814 18622.0 -13745.3 -36.4318 23145.5
 12 06 2015  01 56  -21.5814 18622.0 -13745.3 -36.4317 23145.5
 12 06 2015  01 57  -21.5815 18622.1 -13745.3 -36.4315 23145.5
 12 06 2015  01 58  -21.5814 18622.1 -13745.3 -36.4316 23145.5
 12 06 2015  01 59  -21.5815 18622.1 -13745.3 -36.4316 23145.5
 12 06 2015  02 00  -21.5814 18621.8 -13745.3 -36.4320 23145.3
 12 06 2015  02 01  -21.5815 18621.8 -13745.4 -36.4321 23145.3
 12 06 2015  02 02  -21.5816 18621.7 -13745.4 -36.4324 23145.3
 12 06 2015  02 03  -21.5815 18621.6 -13745.4 -36.4325 23145.2
 12 06 2015  02 04  -21.5813 18621.6 -13745.4 -36.4326 23145.2
 12 06 2015  02 05  -21.5813 18621.6 -13745.5 -36.4326 23145.2
 12 06 2015  02 06  -21.5813 18621.7 -13745.5 -36.4326 23145.3
 12 06 2015  02 07  -21.5813 18621.8 -13745.4 -36.4324 23145.3
 12 06 2015  02 08  -21.5813 18621.7 -13745.5 -36.4325 23145.3
 12 06 2015  02 09  -21.5812 18621.8 -13745.5 -36.4324 23145.4
 12 06 2015  02 10  -21.5812 18621.6 -13745.5 -36.4326 23145.3
 12 06 2015  02 11  -21.5812 18621.5 -13745.5 -36.4330 23145.2
 12 06 2015  02 12  -21.5814 18621.5 -13745.5 -36.4329 23145.2
 12 06 2015  02 13  -21.5815 18621.5 -13745.6 -36.4330 23145.2
 12 06 2015  02 14  -21.5816 18621.5 -13745.6 -36.4332 23145.2
 12 06 2015  02 15  -21.5819 18621.3 -13745.6 -36.4334 23145.1
 12 06 2015  02 16  -21.5823 18621.2 -13745.7 -36.4337 23145.0
 12 06 2015  02 17  -21.5821 18621.2 -13745.7 -36.4337 23145.1
 12 06 2015  02 18  -21.5818 18621.4 -13745.7 -36.4335 23145.2
 12 06 2015  02 19  -21.5814 18621.4 -13745.7 -36.4335 23145.2
 12 06 2015  02 20  -21.5808 18621.3 -13745.8 -36.4337 23145.2
 12 06 2015  02 21  -21.5806 18621.3 -13745.8 -36.4339 23145.2
 12 06 2015  02 22  -21.5811 18621.0 -13745.9 -36.4344 23145.0
 12 06 2015  02 23  -21.5815 18620.9 -13745.9 -36.4345 23144.9
 12 06 2015  02 24  -21.5818 18620.9 -13746.0 -36.4347 23144.9
 12 06 2015  02 25  -21.5822 18620.9 -13746.0 -36.4348 23144.9
 12 06 2015  02 26  -21.5826 18620.7 -13746.0 -36.4350 23144.8
 12 06 2015  02 27  -21.5826 18620.7 -13746.0 -36.4351 23144.9
 12 06 2015  02 28  -21.5824 18620.7 -13746.1 -36.4351 23144.9
 12 06 2015  02 29  -21.5825 18620.6 -13746.1 -36.4353 23144.8
 12 06 2015  02 30  -21.5828 18620.6 -13746.1 -36.4355 23144.8
 12 06 2015  02 31  -21.5832 18620.5 -13746.1 -36.4357 23144.7
 12 06 2015  02 32  -21.5835 18620.4 -13746.2 -36.4358 23144.7
 12 06 2015  02 33  -21.5836 18620.3 -13746.2 -36.4360 23144.6
 12 06 2015  02 34  -21.5836 18620.2 -13746.2 -36.4363 23144.5
 12 06 2015  02 35  -21.5837 18620.0 -13746.3 -36.4366 23144.5
 12 06 2015  02 36  -21.5838 18619.9 -13746.3 -36.4369 23144.4
 12 06 2015  02 37  -21.5839 18619.8 -13746.4 -36.4371 23144.3
 12 06 2015  02 38  -21.5839 18619.7 -13746.4 -36.4373 23144.3
 12 06 2015  02 39  -21.5837 18619.6 -13746.4 -36.4375 23144.2
 12 06 2015  02 40  -21.5832 18619.6 -13746.5 -36.4376 23144.2
 12 06 2015  02 41  -21.5825 18619.4 -13746.5 -36.4380 23144.1
 12 06 2015  02 42  -21.5819 18619.5 -13746.6 -36.4380 23144.2
 12 06 2015  02 43  -21.5815 18619.5 -13746.6 -36.4381 23144.2
 12 06 2015  02 44  -21.5813 18619.4 -13746.7 -36.4383 23144.2
 12 06 2015  02 45  -21.5813 18619.3 -13746.7 -36.4386 23144.1
 12 06 2015  02 46  -21.5810 18619.4 -13746.8 -36.4385 23144.2
 12 06 2015  02 47  -21.5805 18619.4 -13746.8 -36.4387 23144.2
 12 06 2015  02 48  -21.5800 18619.3 -13746.8 -36.4388 23144.2
 12 06 2015  02 49  -21.5801 18619.0 -13746.9 -36.4393 23144.0
 12 06 2015  02 50  -21.5804 18618.8 -13747.0 -36.4399 23143.9
 12 06 2015  02 51  -21.5803 18618.6 -13747.1 -36.4403 23143.7
 12 06 2015  02 52  -21.5797 18618.5 -13747.2 -36.4406 23143.8
 12 06 2015  02 53  -21.5790 18618.5 -13747.2 -36.4407 23143.8
 12 06 2015  02 54  -21.5791 18618.4 -13747.3 -36.4411 23143.7
 12 06 2015  02 55  -21.5798 18618.0 -13747.3 -36.4416 23143.5
 12 06 2015  02 56  -21.5801 18618.0 -13747.4 -36.4418 23143.5
 12 06 2015  02 57  -21.5800 18618.0 -13747.4 -36.4418 23143.5
 12 06 2015  02 58  -21.5799 18618.0 -13747.4 -36.4418 23143.5
 12 06 2015  02 59  -21.5802 18618.0 -13747.4 -36.4419 23143.5
 12 06 2015  03 00  -21.5806 18617.9 -13747.4 -36.4421 23143.4
 12 06 2015  03 01  -21.5809 18617.8 -13747.4 -36.4422 23143.3
 12 06 2015  03 02  -21.5812 18617.7 -13747.5 -36.4424 23143.3
 12 06 2015  03 03  -21.5812 18617.9 -13747.5 -36.4422 23143.4
 12 06 2015  03 04  -21.5812 18617.9 -13747.5 -36.4422 23143.4
 12 06 2015  03 05  -21.5811 18618.0 -13747.4 -36.4419 23143.5
 12 06 2015  03 06  -21.5810 18618.0 -13747.4 -36.4418 23143.5
 12 06 2015  03 07  -21.5810 18618.0 -13747.4 -36.4418 23143.5
 12 06 2015  03 08  -21.5809 18618.1 -13747.4 -36.4417 23143.6
 12 06 2015  03 09  -21.5806 18618.0 -13747.4 -36.4417 23143.5
 12 06 2015  03 10  -21.5805 18617.9 -13747.4 -36.4419 23143.4
 12 06 2015  03 11  -21.5803 18617.9 -13747.4 -36.4420 23143.4
 12 06 2015  03 12  -21.5801 18617.9 -13747.4 -36.4420 23143.4
 12 06 2015  03 13  -21.5802 18617.8 -13747.4 -36.4422 23143.3
 12 06 2015  03 14  -21.5804 18617.7 -13747.4 -36.4424 23143.2
 12 06 2015  03 15  -21.5807 18617.6 -13747.4 -36.4424 23143.1
 12 06 2015  03 16  -21.5811 18617.5 -13747.4 -36.4426 23143.1
 12 06 2015  03 17  -21.5816 18617.4 -13747.4 -36.4426 23143.0
 12 06 2015  03 18  -21.5820 18617.4 -13747.4 -36.4426 23143.0
 12 06 2015  03 19  -21.5822 18617.4 -13747.3 -36.4426 23143.0
 12 06 2015  03 20  -21.5824 18617.3 -13747.3 -36.4428 23142.9
 12 06 2015  03 21  -21.5825 18617.3 -13747.3 -36.4427 23142.9
 12 06 2015  03 22  -21.5824 18617.2 -13747.3 -36.4429 23142.8
 12 06 2015  03 23  -21.5823 18617.1 -13747.3 -36.4430 23142.7
 12 06 2015  03 24  -21.5820 18617.1 -13747.3 -36.4430 23142.7
 12 06 2015  03 25  -21.5816 18617.1 -13747.4 -36.4431 23142.7
 12 06 2015  03 26  -21.5807 18617.1 -13747.4 -36.4430 23142.8
 12 06 2015  03 27  -21.5797 18617.2 -13747.4 -36.4429 23142.9
 12 06 2015  03 28  -21.5787 18617.5 -13747.4 -36.4427 23143.1
 12 06 2015  03 29  -21.5783 18617.4 -13747.4 -36.4427 23143.0
 12 06 2015  03 30  -21.5785 18617.3 -13747.4 -36.4428 23142.9
 12 06 2015  03 31  -21.5788 18617.5 -13747.4 -36.4425 23143.0
 12 06 2015  03 32  -21.5792 18617.7 -13747.3 -36.4420 23143.2
 12 06 2015  03 33  -21.5790 18618.0 -13747.3 -36.4415 23143.4
 12 06 2015  03 34  -21.5788 18618.0 -13747.2 -36.4414 23143.4
 12 06 2015  03 35  -21.5788 18618.0 -13747.2 -36.4416 23143.4
 12 06 2015  03 36  -21.5788 18618.0 -13747.3 -36.4415 23143.4
 12 06 2015  03 37  -21.5785 18618.1 -13747.3 -36.4414 23143.5
 12 06 2015  03 38  -21.5783 18618.2 -13747.3 -36.4412 23143.6
 12 06 2015  03 39  -21.5781 18618.4 -13747.2 -36.4409 23143.7
 12 06 2015  03 40  -21.5779 18618.5 -13747.2 -36.4407 23143.8
 12 06 2015  03 41  -21.5777 18618.7 -13747.2 -36.4403 23144.0
 12 06 2015  03 42  -21.5760 18619.5 -13747.2 -36.4392 23144.5
 12 06 2015  03 43  -21.5757 18619.5 -13747.2 -36.4391 23144.6
 12 06 2015  03 44  -21.5748 18619.7 -13747.2 -36.4388 23144.8
 12 06 2015  03 45  -21.5739 18620.0 -13747.2 -36.4385 23145.0
 12 06 2015  03 46  -21.5735 18620.1 -13747.2 -36.4383 23145.1
 12 06 2015  03 47  -21.5726 18620.6 -13747.2 -36.4376 23145.4
 12 06 2015  03 48  -21.5718 18621.1 -13747.1 -36.4367 23145.8
 12 06 2015  03 49  -21.5708 18621.8 -13747.0 -36.4354 23146.3
 12 06 2015  03 50  -21.5705 18622.4 -13746.9 -36.4343 23146.7
 12 06 2015  03 51  -21.5696 18622.8 -13746.7 -36.4334 23147.0
 12 06 2015  03 52  -21.5692 18623.3 -13746.6 -36.4325 23147.3
 12 06 2015  03 53  -21.5690 18623.4 -13746.6 -36.4321 23147.4
 12 06 2015  03 54  -21.5691 18623.7 -13746.5 -36.4316 23147.6
 12 06 2015  03 55  -21.5691 18623.8 -13746.5 -36.4314 23147.6
 12 06 2015  03 56  -21.5690 18623.9 -13746.4 -36.4312 23147.6
 12 06 2015  03 57  -21.5691 18623.9 -13746.4 -36.4311 23147.7
 12 06 2015  03 58  -21.5692 18623.8 -13746.4 -36.4312 23147.6
 12 06 2015  03 59  -21.5692 18623.9 -13746.4 -36.4312 23147.6
 12 06 2015  04 00  -21.5689 18623.9 -13746.4 -36.4312 23147.6
 12 06 2015  04 01  -21.5685 18623.9 -13746.4 -36.4311 23147.6
 12 06 2015  04 02  -21.5682 18623.9 -13746.4 -36.4312 23147.6
 12 06 2015  04 03  -21.5678 18623.8 -13746.5 -36.4314 23147.6
 12 06 2015  04 04  -21.5674 18623.7 -13746.5 -36.4316 23147.6
 12 06 2015  04 05  -21.5673 18623.6 -13746.6 -36.4319 23147.5
 12 06 2015  04 06  -21.5675 18623.4 -13746.6 -36.4323 23147.4
 12 06 2015  04 07  -21.5678 18623.3 -13746.7 -36.4327 23147.3
 12 06 2015  04 08  -21.5679 18623.2 -13746.8 -36.4329 23147.3
 12 06 2015  04 09  -21.5681 18623.1 -13746.8 -36.4332 23147.2
 12 06 2015  04 10  -21.5681 18623.1 -13746.8 -36.4332 23147.2
 12 06 2015  04 11  -21.5682 18623.0 -13746.8 -36.4333 23147.2
 12 06 2015  04 12  -21.5682 18623.0 -13746.9 -36.4334 23147.2
 12 06 2015  04 13  -21.5686 18622.9 -13746.9 -36.4337 23147.1
 12 06 2015  04 14  -21.5688 18622.9 -13747.0 -36.4338 23147.2
 12 06 2015  04 15  -21.5692 18622.9 -13747.0 -36.4337 23147.2
 12 06 2015  04 16  -21.5698 18622.9 -13747.0 -36.4338 23147.2
 12 06 2015  04 17  -21.5704 18622.9 -13747.0 -36.4338 23147.1
 12 06 2015  04 18  -21.5710 18622.8 -13746.9 -36.4338 23147.1
 12 06 2015  04 19  -21.5713 18622.7 -13746.9 -36.4339 23147.0
 12 06 2015  04 20  -21.5715 18622.6 -13746.9 -36.4341 23146.9
 12 06 2015  04 21  -21.5718 18622.6 -13746.9 -36.4342 23146.9
 12 06 2015  04 22  -21.5721 18622.6 -13746.9 -36.4340 23146.9
 12 06 2015  04 23  -21.5725 18622.6 -13746.9 -36.4340 23146.9
 12 06 2015  04 24  -21.5725 18622.6 -13746.9 -36.4340 23146.9
 12 06 2015  04 25  -21.5723 18622.5 -13746.9 -36.4341 23146.8
 12 06 2015  04 26  -21.5719 18622.4 -13746.9 -36.4344 23146.7
 12 06 2015  04 27  -21.5713 18622.3 -13746.9 -36.4346 23146.7
 12 06 2015  04 28  -21.5709 18622.2 -13747.0 -36.4348 23146.6
 12 06 2015  04 29  -21.5706 18622.1 -13747.0 -36.4349 23146.6
 12 06 2015  04 30  -21.5700 18622.0 -13747.1 -36.4353 23146.5
 12 06 2015  04 31  -21.5694 18621.6 -13747.2 -36.4360 23146.3
 12 06 2015  04 32  -21.5689 18621.4 -13747.3 -36.4365 23146.2
 12 06 2015  04 33  -21.5692 18621.2 -13747.3 -36.4369 23146.0
 12 06 2015  04 34  -21.5700 18621.2 -13747.4 -36.4370 23146.0
 12 06 2015  04 35  -21.5707 18621.2 -13747.3 -36.4370 23146.0
 12 06 2015  04 36  -21.5714 18621.1 -13747.3 -36.4372 23145.9
 12 06 2015  04 37  -21.5723 18620.9 -13747.3 -36.4374 23145.8
 12 06 2015  04 38  -21.5730 18620.8 -13747.3 -36.4375 23145.7
 12 06 2015  04 39  -21.5738 18620.7 -13747.3 -36.4376 23145.6
 12 06 2015  04 40  -21.5742 18620.7 -13747.3 -36.4377 23145.6
 12 06 2015  04 41  -21.5745 18620.6 -13747.3 -36.4378 23145.5
 12 06 2015  04 42  -21.5747 18620.5 -13747.3 -36.4380 23145.5
 12 06 2015  04 43  -21.5745 18620.4 -13747.4 -36.4381 23145.4
 12 06 2015  04 44  -21.5744 18620.4 -13747.3 -36.4382 23145.3
 12 06 2015  04 45  -21.5744 18620.3 -13747.4 -36.4384 23145.3
 12 06 2015  04 46  -21.5744 18620.3 -13747.4 -36.4384 23145.3
 12 06 2015  04 47  -21.5746 18620.4 -13747.3 -36.4382 23145.4
 12 06 2015  04 48  -21.5749 18620.5 -13747.3 -36.4379 23145.4
 12 06 2015  04 49  -21.5752 18620.4 -13747.3 -36.4380 23145.4
 12 06 2015  04 50  -21.5754 18620.3 -13747.3 -36.4382 23145.3
 12 06 2015  04 51  -21.5754 18620.3 -13747.3 -36.4383 23145.3
 12 06 2015  04 52  -21.5753 18620.3 -13747.3 -36.4382 23145.3
 12 06 2015  04 53  -21.5749 18620.4 -13747.3 -36.4382 23145.4
 12 06 2015  04 54  -21.5747 18620.3 -13747.4 -36.4384 23145.4
 12 06 2015  04 55  -21.5746 18620.3 -13747.4 -36.4383 23145.3
 12 06 2015  04 56  -21.5748 18620.3 -13747.4 -36.4383 23145.3
 12 06 2015  04 57  -21.5747 18620.4 -13747.3 -36.4381 23145.4
 12 06 2015  04 58  -21.5746 18620.6 -13747.3 -36.4379 23145.5
 12 06 2015  04 59  -21.5749 18620.5 -13747.3 -36.4378 23145.4
 12 06 2015  05 00  -21.5750 18620.6 -13747.2 -36.4377 23145.5
 12 06 2015  05 01  -21.5754 18620.5 -13747.2 -36.4377 23145.4
 12 06 2015  05 02  -21.5753 18620.5 -13747.2 -36.4377 23145.4
 12 06 2015  05 03  -21.5746 18620.6 -13747.2 -36.4375 23145.4
 12 06 2015  05 04  -21.5738 18620.8 -13747.2 -36.4372 23145.6
 12 06 2015  05 05  -21.5730 18621.0 -13747.1 -36.4370 23145.7
 12 06 2015  05 06  -21.5724 18621.0 -13747.2 -36.4369 23145.8
 12 06 2015  05 07  -21.5723 18621.1 -13747.2 -36.4368 23145.8
 12 06 2015  05 08  -21.5718 18621.3 -13747.2 -36.4364 23146.0
 12 06 2015  05 09  -21.5713 18621.7 -13747.2 -36.4360 23146.3
 12 06 2015  05 10  -21.5712 18621.7 -13747.1 -36.4359 23146.3
 12 06 2015  05 11  -21.5703 18622.0 -13747.1 -36.4353 23146.6
 12 06 2015  05 12  -21.5701 18622.1 -13747.1 -36.4351 23146.6
 12 06 2015  05 13  -21.5701 18622.3 -13747.1 -36.4348 23146.7
 12 06 2015  05 14  -21.5701 18622.5 -13747.0 -36.4344 23146.9
 12 06 2015  05 15  -21.5694 18622.9 -13747.0 -36.4338 23147.2
 12 06 2015  05 16  -21.5690 18623.0 -13747.0 -36.4335 23147.3
 12 06 2015  05 17  -21.5682 18623.3 -13747.0 -36.4332 23147.5
 12 06 2015  05 18  -21.5677 18623.5 -13747.0 -36.4329 23147.7
 12 06 2015  05 19  -21.5672 18623.6 -13747.0 -36.4327 23147.7
 12 06 2015  05 20  -21.5671 18623.7 -13747.0 -36.4326 23147.8
 12 06 2015  05 21  -21.5670 18623.9 -13747.0 -36.4323 23148.0
 12 06 2015  05 22  -21.5678 18623.9 -13746.9 -36.4321 23148.0
 12 06 2015  05 23  -21.5685 18623.8 -13746.9 -36.4323 23147.9
 12 06 2015  05 24  -21.5687 18624.0 -13746.9 -36.4320 23148.0
 12 06 2015  05 25  -21.5687 18624.3 -13746.9 -36.4316 23148.2
 12 06 2015  05 26  -21.5689 18624.3 -13746.8 -36.4314 23148.2
 12 06 2015  05 27  -21.5686 18624.5 -13746.8 -36.4312 23148.4
 12 06 2015  05 28  -21.5679 18624.9 -13746.8 -36.4306 23148.7
 12 06 2015  05 29  -21.5673 18625.2 -13746.8 -36.4300 23148.9
 12 06 2015  05 30  -21.5674 18625.2 -13746.7 -36.4298 23148.9
 12 06 2015  05 31  -21.5670 18625.3 -13746.7 -36.4296 23149.0
 12 06 2015  05 32  -21.5667 18625.6 -13746.6 -36.4291 23149.1
 12 06 2015  05 33  -21.5663 18625.7 -13746.6 -36.4288 23149.2
 12 06 2015  05 34  -21.5664 18625.6 -13746.5 -36.4289 23149.1
 12 06 2015  05 35  -21.5657 18625.8 -13746.6 -36.4287 23149.3
 12 06 2015  05 36  -21.5651 18625.9 -13746.6 -36.4285 23149.4
 12 06 2015  05 37  -21.5648 18625.9 -13746.6 -36.4287 23149.4
 12 06 2015  05 38  -21.5650 18625.8 -13746.7 -36.4289 23149.4
 12 06 2015  05 39  -21.5653 18625.9 -13746.7 -36.4290 23149.4
 12 06 2015  05 40  -21.5653 18626.0 -13746.8 -36.4288 23149.5
 12 06 2015  05 41  -21.5655 18626.0 -13746.8 -36.4288 23149.5
 12 06 2015  05 42  -21.5657 18626.0 -13746.8 -36.4287 23149.6
 12 06 2015  05 43  -21.5656 18626.2 -13746.7 -36.4284 23149.7
 12 06 2015  05 44  -21.5651 18626.5 -13746.7 -36.4279 23149.9
 12 06 2015  05 45  -21.5651 18626.7 -13746.7 -36.4276 23150.0
 12 06 2015  05 46  -21.5653 18626.7 -13746.6 -36.4275 23150.0
 12 06 2015  05 47  -21.5649 18626.8 -13746.6 -36.4273 23150.1
 12 06 2015  05 48  -21.5648 18626.7 -13746.6 -36.4274 23150.0
 12 06 2015  05 49  -21.5648 18626.6 -13746.6 -36.4275 23150.0
 12 06 2015  05 50  -21.5650 18626.7 -13746.6 -36.4274 23150.0
 12 06 2015  05 51  -21.5647 18626.8 -13746.6 -36.4272 23150.1
 12 06 2015  05 52  -21.5645 18626.9 -13746.6 -36.4271 23150.1
 12 06 2015  05 53  -21.5644 18626.9 -13746.6 -36.4270 23150.2
 12 06 2015  05 54  -21.5640 18626.9 -13746.6 -36.4270 23150.2
 12 06 2015  05 55  -21.5636 18627.0 -13746.6 -36.4270 23150.2
 12 06 2015  05 56  -21.5637 18626.8 -13746.6 -36.4272 23150.1
 12 06 2015  05 57  -21.5636 18626.8 -13746.6 -36.4273 23150.1
 12 06 2015  05 58  -21.5631 18626.9 -13746.6 -36.4270 23150.2
 12 06 2015  05 59  -21.5628 18627.0 -13746.6 -36.4269 23150.2
 12 06 2015  06 00  -21.5627 18626.9 -13746.5 -36.4270 23150.1
 12 06 2015  06 01  -21.5629 18626.8 -13746.6 -36.4272 23150.1
 12 06 2015  06 02  -21.5630 18626.7 -13746.6 -36.4273 23150.0
 12 06 2015  06 03  -21.5632 18626.6 -13746.6 -36.4275 23149.9
 12 06 2015  06 04  -21.5636 18626.5 -13746.6 -36.4278 23149.8
 12 06 2015  06 05  -21.5640 18626.3 -13746.6 -36.4280 23149.7
 12 06 2015  06 06  -21.5643 18626.2 -13746.6 -36.4281 23149.6
 12 06 2015  06 07  -21.5643 18626.3 -13746.6 -36.4281 23149.7
 12 06 2015  06 08  -21.5643 18626.3 -13746.6 -36.4281 23149.7
 12 06 2015  06 09  -21.5644 18626.3 -13746.6 -36.4280 23149.7
 12 06 2015  06 10  -21.5646 18626.2 -13746.6 -36.4283 23149.6
 12 06 2015  06 11  -21.5646 18626.1 -13746.6 -36.4284 23149.5
 12 06 2015  06 12  -21.5644 18626.1 -13746.7 -36.4285 23149.5
 12 06 2015  06 13  -21.5642 18626.0 -13746.7 -36.4287 23149.5
 12 06 2015  06 14  -21.5642 18625.9 -13746.7 -36.4289 23149.4
 12 06 2015  06 15  -21.5642 18626.0 -13746.8 -36.4288 23149.5
 12 06 2015  06 16  -21.5641 18626.0 -13746.8 -36.4288 23149.6
 12 06 2015  06 17  -21.5640 18626.0 -13746.8 -36.4289 23149.5
 12 06 2015  06 18  -21.5642 18626.0 -13746.8 -36.4289 23149.5
 12 06 2015  06 19  -21.5643 18626.0 -13746.8 -36.4290 23149.5
 12 06 2015  06 20  -21.5642 18625.9 -13746.9 -36.4292 23149.5
 12 06 2015  06 21  -21.5643 18625.9 -13747.0 -36.4294 23149.5
 12 06 2015  06 22  -21.5644 18625.9 -13747.0 -36.4294 23149.6
 12 06 2015  06 23  -21.5645 18625.9 -13747.0 -36.4295 23149.6
 12 06 2015  06 24  -21.5648 18625.8 -13747.0 -36.4295 23149.5
 12 06 2015  06 25  -21.5649 18625.9 -13747.0 -36.4294 23149.6
 12 06 2015  06 26  -21.5650 18625.9 -13747.0 -36.4295 23149.6
 12 06 2015  06 27  -21.5652 18626.0 -13747.0 -36.4294 23149.7
 12 06 2015  06 28  -21.5655 18626.0 -13747.0 -36.4293 23149.7
 12 06 2015  06 29  -21.5656 18625.9 -13747.0 -36.4293 23149.6
 12 06 2015  06 30  -21.5655 18626.0 -13746.9 -36.4291 23149.7
 12 06 2015  06 31  -21.5653 18626.1 -13746.9 -36.4288 23149.7
 12 06 2015  06 32  -21.5653 18626.2 -13746.8 -36.4286 23149.7
 12 06 2015  06 33  -21.5655 18626.2 -13746.8 -36.4285 23149.7
 12 06 2015  06 34  -21.5659 18626.3 -13746.7 -36.4283 23149.7
 12 06 2015  06 35  -21.5660 18626.3 -13746.7 -36.4281 23149.7
 12 06 2015  06 36  -21.5662 18626.3 -13746.6 -36.4281 23149.7
 12 06 2015  06 37  -21.5663 18626.4 -13746.6 -36.4279 23149.7
 12 06 2015  06 38  -21.5662 18626.3 -13746.6 -36.4280 23149.7
 12 06 2015  06 39  -21.5658 18626.3 -13746.6 -36.4281 23149.7
 12 06 2015  06 40  -21.5652 18626.2 -13746.7 -36.4283 23149.7
 12 06 2015  06 41  -21.5650 18626.3 -13746.7 -36.4283 23149.7
 12 06 2015  06 42  -21.5650 18626.2 -13746.7 -36.4283 23149.7
 12 06 2015  06 43  -21.5651 18626.2 -13746.7 -36.4284 23149.7
 12 06 2015  06 44  -21.5652 18626.2 -13746.7 -36.4283 23149.7
 12 06 2015  06 45  -21.5650 18626.2 -13746.7 -36.4283 23149.7
 12 06 2015  06 46  -21.5646 18626.3 -13746.7 -36.4282 23149.7
 12 06 2015  06 47  -21.5642 18626.4 -13746.7 -36.4280 23149.8
 12 06 2015  06 48  -21.5641 18626.4 -13746.6 -36.4279 23149.8
 12 06 2015  06 49  -21.5643 18626.5 -13746.6 -36.4277 23149.9
 12 06 2015  06 50  -21.5649 18626.5 -13746.6 -36.4277 23149.9
 12 06 2015  06 51  -21.5654 18626.6 -13746.5 -36.4274 23149.9
 12 06 2015  06 52  -21.5659 18626.6 -13746.5 -36.4274 23149.9
 12 06 2015  06 53  -21.5665 18626.7 -13746.4 -36.4271 23149.9
 12 06 2015  06 54  -21.5665 18626.8 -13746.4 -36.4269 23150.0
 12 06 2015  06 55  -21.5662 18626.8 -13746.4 -36.4269 23149.9
 12 06 2015  06 56  -21.5661 18626.7 -13746.4 -36.4269 23149.9
 12 06 2015  06 57  -21.5662 18626.7 -13746.4 -36.4270 23149.9
 12 06 2015  06 58  -21.5662 18626.9 -13746.4 -36.4267 23150.0
 12 06 2015  06 59  -21.5662 18627.0 -13746.4 -36.4266 23150.1
 12 06 2015  07 00  -21.5660 18627.1 -13746.3 -36.4264 23150.2
 12 06 2015  07 01  -21.5660 18627.2 -13746.3 -36.4261 23150.2
 12 06 2015  07 02  -21.5661 18627.4 -13746.3 -36.4258 23150.3
 12 06 2015  07 03  -21.5664 18627.5 -13746.2 -36.4255 23150.4
 12 06 2015  07 04  -21.5666 18627.5 -13746.2 -36.4255 23150.5
 12 06 2015  07 05  -21.5667 18627.5 -13746.2 -36.4255 23150.5
 12 06 2015  07 06  -21.5663 18627.6 -13746.2 -36.4253 23150.5
 12 06 2015  07 07  -21.5660 18627.8 -13746.2 -36.4251 23150.6
 12 06 2015  07 08  -21.5658 18627.8 -13746.2 -36.4250 23150.6
 12 06 2015  07 09  -21.5651 18627.9 -13746.2 -36.4250 23150.7
 12 06 2015  07 10  -21.5646 18627.8 -13746.3 -36.4252 23150.7
 12 06 2015  07 11  -21.5645 18627.9 -13746.3 -36.4250 23150.8
 12 06 2015  07 12  -21.5646 18628.0 -13746.3 -36.4249 23150.8
 12 06 2015  07 13  -21.5646 18628.0 -13746.3 -36.4249 23150.8
 12 06 2015  07 14  -21.5645 18627.9 -13746.3 -36.4250 23150.8
 12 06 2015  07 15  -21.5641 18628.0 -13746.3 -36.4249 23150.9
 12 06 2015  07 16  -21.5635 18628.2 -13746.3 -36.4247 23151.0
 12 06 2015  07 17  -21.5631 18628.2 -13746.3 -36.4246 23151.0
 12 06 2015  07 18  -21.5632 18628.1 -13746.3 -36.4247 23151.0
 12 06 2015  07 19  -21.5635 18628.2 -13746.3 -36.4246 23151.0
 12 06 2015  07 20  -21.5635 18628.3 -13746.3 -36.4245 23151.1
 12 06 2015  07 21  -21.5637 18628.2 -13746.3 -36.4245 23151.1
 12 06 2015  07 22  -21.5637 18628.3 -13746.3 -36.4245 23151.1
 12 06 2015  07 23  -21.5636 18628.4 -13746.3 -36.4243 23151.2
 12 06 2015  07 24  -21.5635 18628.5 -13746.3 -36.4242 23151.2
 12 06 2015  07 25  -21.5634 18628.7 -13746.3 -36.4238 23151.4
 12 06 2015  07 26  -21.5633 18628.7 -13746.2 -36.4237 23151.4
 12 06 2015  07 27  -21.5632 18628.9 -13746.1 -36.4232 23151.5
 12 06 2015  07 28  -21.5633 18629.0 -13746.1 -36.4230 23151.6
 12 06 2015  07 29  -21.5630 18629.1 -13746.1 -36.4229 23151.6
 12 06 2015  07 30  -21.5627 18629.1 -13746.1 -36.4229 23151.6
 12 06 2015  07 31  -21.5626 18629.1 -13746.1 -36.4229 23151.7
 12 06 2015  07 32  -21.5621 18629.3 -13746.0 -36.4225 23151.7
 12 06 2015  07 33  -21.5614 18629.5 -13746.0 -36.4222 23151.9
 12 06 2015  07 34  -21.5609 18629.6 -13746.0 -36.4219 23151.9
 12 06 2015  07 35  -21.5603 18629.7 -13745.9 -36.4217 23152.0
 12 06 2015  07 36  -21.5598 18629.7 -13745.9 -36.4217 23152.1
 12 06 2015  07 37  -21.5594 18629.8 -13745.9 -36.4216 23152.1
 12 06 2015  07 38  -21.5587 18629.8 -13746.0 -36.4217 23152.1
 12 06 2015  07 39  -21.5582 18629.8 -13746.0 -36.4218 23152.1
 12 06 2015  07 40  -21.5574 18629.7 -13746.1 -36.4220 23152.1
 12 06 2015  07 41  -21.5568 18629.7 -13746.1 -36.4222 23152.1
 12 06 2015  07 42  -21.5563 18629.6 -13746.2 -36.4223 23152.1
 12 06 2015  07 43  -21.5562 18629.8 -13746.2 -36.4221 23152.2
 12 06 2015  07 44  -21.5565 18629.7 -13746.2 -36.4222 23152.2
 12 06 2015  07 45  -21.5571 18629.8 -13746.2 -36.4220 23152.3
 12 06 2015  07 46  -21.5574 18629.8 -13746.1 -36.4219 23152.3
 12 06 2015  07 47  -21.5574 18629.8 -13746.1 -36.4219 23152.2
 12 06 2015  07 48  -21.5575 18629.7 -13746.1 -36.4221 23152.1
 12 06 2015  07 49  -21.5576 18629.6 -13746.1 -36.4222 23152.0
 12 06 2015  07 50  -21.5576 18629.6 -13746.1 -36.4221 23152.1
 12 06 2015  07 51  -21.5577 18629.8 -13746.1 -36.4219 23152.2
 12 06 2015  07 52  -21.5577 18629.9 -13746.1 -36.4217 23152.3
 12 06 2015  07 53  -21.5577 18630.1 -13746.1 -36.4214 23152.4
 12 06 2015  07 54  -21.5577 18630.1 -13746.1 -36.4214 23152.4
 12 06 2015  07 55  -21.5573 18630.1 -13746.1 -36.4214 23152.4
 12 06 2015  07 56  -21.5570 18630.1 -13746.1 -36.4215 23152.5
 12 06 2015  07 57  -21.5570 18630.0 -13746.2 -36.4217 23152.4
 12 06 2015  07 58  -21.5569 18630.1 -13746.2 -36.4217 23152.5
 12 06 2015  07 59  -21.5569 18630.1 -13746.2 -36.4218 23152.5
 12 06 2015  08 00  -21.5570 18630.0 -13746.3 -36.4219 23152.5
 12 06 2015  08 01  -21.5569 18630.0 -13746.2 -36.4219 23152.4
 12 06 2015  08 02  -21.5570 18630.0 -13746.2 -36.4219 23152.4
 12 06 2015  08 03  -21.5573 18630.0 -13746.2 -36.4218 23152.4
 12 06 2015  08 04  -21.5572 18630.2 -13746.2 -36.4215 23152.6
 12 06 2015  08 05  -21.5570 18630.2 -13746.1 -36.4214 23152.5
 12 06 2015  08 06  -21.5573 18630.0 -13746.1 -36.4217 23152.4
 12 06 2015  08 07  -21.5574 18630.0 -13746.1 -36.4216 23152.3
 12 06 2015  08 08  -21.5575 18630.1 -13746.1 -36.4215 23152.4
 12 06 2015  08 09  -21.5574 18630.1 -13746.1 -36.4214 23152.4
 12 06 2015  08 10  -21.5573 18630.0 -13746.1 -36.4215 23152.4
 12 06 2015  08 11  -21.5573 18630.2 -13746.0 -36.4213 23152.5
 12 06 2015  08 12  -21.5571 18630.2 -13746.0 -36.4211 23152.5
 12 06 2015  08 13  -21.5567 18630.3 -13746.0 -36.4210 23152.6
 12 06 2015  08 14  -21.5562 18630.3 -13746.1 -36.4213 23152.6
 12 06 2015  08 15  -21.5562 18630.2 -13746.1 -36.4214 23152.5
 12 06 2015  08 16  -21.5564 18630.1 -13746.2 -36.4216 23152.5
 12 06 2015  08 17  -21.5564 18630.2 -13746.2 -36.4216 23152.6
 12 06 2015  08 18  -21.5565 18630.2 -13746.2 -36.4214 23152.6
 12 06 2015  08 19  -21.5568 18630.2 -13746.2 -36.4216 23152.6
 12 06 2015  08 20  -21.5565 18630.4 -13746.2 -36.4213 23152.8
 12 06 2015  08 21  -21.5559 18630.1 -13746.3 -36.4217 23152.6
 12 06 2015  08 22  -21.5554 18630.2 -13746.3 -36.4216 23152.7
 12 06 2015  08 23  -21.5548 18630.0 -13746.3 -36.4220 23152.5
 12 06 2015  08 24  -21.5550 18629.9 -13746.4 -36.4222 23152.5
 12 06 2015  08 25  -21.5549 18630.2 -13746.4 -36.4218 23152.7
 12 06 2015  08 26  -21.5542 18630.2 -13746.4 -36.4219 23152.7
 12 06 2015  08 27  -21.5535 18630.3 -13746.5 -36.4219 23152.8
 12 06 2015  08 28  -21.5538 18630.4 -13746.4 -36.4217 23152.8
 12 06 2015  08 29  -21.5538 18630.5 -13746.4 -36.4215 23152.9
 12 06 2015  08 30  -21.5535 18630.3 -13746.5 -36.4218 23152.9
 12 06 2015  08 31  -21.5533 18630.4 -13746.5 -36.4218 23152.9
 12 06 2015  08 32  -21.5529 18630.5 -13746.5 -36.4217 23153.0
 12 06 2015  08 33  -21.5522 18630.2 -13746.5 -36.4221 23152.8
 12 06 2015  08 34  -21.5525 18630.2 -13746.5 -36.4221 23152.8
 12 06 2015  08 35  -21.5526 18630.2 -13746.5 -36.4220 23152.8
 12 06 2015  08 36  -21.5529 18629.8 -13746.5 -36.4227 23152.4
 12 06 2015  08 37  -21.5530 18630.1 -13746.6 -36.4223 23152.7
 12 06 2015  08 38  -21.5534 18630.0 -13746.6 -36.4225 23152.6
 12 06 2015  08 39  -21.5531 18630.4 -13746.5 -36.4218 23152.9
 12 06 2015  08 40  -21.5528 18630.1 -13746.5 -36.4222 23152.7
 12 06 2015  08 41  -21.5524 18630.3 -13746.4 -36.4218 23152.8
 12 06 2015  08 42  -21.5523 18629.8 -13746.5 -36.4225 23152.4
 12 06 2015  08 43  -21.5526 18630.0 -13746.5 -36.4224 23152.5
 12 06 2015  08 44  -21.5527 18629.6 -13746.5 -36.4230 23152.3
 12 06 2015  08 45  -21.5534 18630.2 -13746.4 -36.4220 23152.7
 12 06 2015  08 46  -21.5534 18630.0 -13746.4 -36.4222 23152.6
 12 06 2015  08 47  -21.5530 18630.3 -13746.3 -36.4216 23152.7
 12 06 2015  08 48  -21.5521 18630.1 -13746.4 -36.4221 23152.6
 12 06 2015  08 49  -21.5521 18629.9 -13746.4 -36.4224 23152.4
 12 06 2015  08 50  -21.5522 18630.1 -13746.4 -36.4221 23152.6
 12 06 2015  08 51  -21.5523 18629.8 -13746.4 -36.4224 23152.4
 12 06 2015  08 52  -21.5522 18630.2 -13746.4 -36.4219 23152.7
 12 06 2015  08 53  -21.5520 18630.1 -13746.3 -36.4219 23152.6
 12 06 2015  08 54  -21.5514 18630.3 -13746.3 -36.4216 23152.8
 12 06 2015  08 55  -21.5506 18630.1 -13746.4 -36.4220 23152.6
 12 06 2015  08 56  -21.5511 18630.0 -13746.4 -36.4223 23152.6
 12 06 2015  08 57  -21.5512 18630.3 -13746.3 -36.4215 23152.8
 12 06 2015  08 58  -21.5511 18630.1 -13746.3 -36.4218 23152.5
 12 06 2015  08 59  -21.5507 18629.9 -13746.3 -36.4221 23152.4
 12 06 2015  09 00  -21.5499 18629.9 -13746.3 -36.4221 23152.4
 12 06 2015  09 01  -21.5510 18630.2 -13746.2 -36.4216 23152.6
 12 06 2015  09 02  -21.5512 18629.6 -13746.2 -36.4224 23152.1
 12 06 2015  09 03  -21.5528 18630.3 -13746.1 -36.4212 23152.6
 12 06 2015  09 04  -21.5524 18629.7 -13746.0 -36.4219 23152.1
 12 06 2015  09 05  -21.5523 18630.1 -13746.0 -36.4212 23152.3
 12 06 2015  09 06  -21.5512 18630.0 -13745.9 -36.4212 23152.2
 12 06 2015  09 07  -21.5505 18630.2 -13745.8 -36.4208 23152.4
 12 06 2015  09 08  -21.5500 18630.7 -13745.7 -36.4198 23152.7
 12 06 2015  09 09  -21.5490 18630.5 -13745.6 -36.4198 23152.5
 12 06 2015  09 10  -21.5485 18630.4 -13745.6 -36.4199 23152.4
 12 06 2015  09 11  -21.5488 18630.8 -13745.5 -36.4193 23152.6
 12 06 2015  09 12  -21.5481 18630.4 -13745.4 -36.4197 23152.3
 12 06 2015  09 13  -21.5477 18630.2 -13745.5 -36.4201 23152.2
 12 06 2015  09 14  -21.5473 18630.3 -13745.5 -36.4199 23152.2
 12 06 2015  09 15  -21.5472 18630.5 -13745.4 -36.4194 23152.4
 12 06 2015  09 16  -21.5469 18631.0 -13745.3 -36.4184 23152.7
 12 06 2015  09 17  -21.5462 18631.2 -13745.2 -36.4179 23152.8
 12 06 2015  09 18  -21.5463 18631.0 -13745.2 -36.4182 23152.6
 12 06 2015  09 19  -21.5455 18630.9 -13745.1 -36.4182 23152.5
 12 06 2015  09 20  -21.5450 18630.6 -13745.2 -36.4188 23152.3
 12 06 2015  09 21  -21.5457 18630.9 -13745.1 -36.4183 23152.5
 12 06 2015  09 22  -21.5460 18630.3 -13745.1 -36.4192 23152.0
 12 06 2015  09 23  -21.5460 18631.5 -13745.0 -36.4172 23152.9
 12 06 2015  09 24  -21.5455 18631.4 -13744.9 -36.4171 23152.8
 12 06 2015  09 25  -21.5451 18631.3 -13744.9 -36.4173 23152.7
 12 06 2015  09 26  -21.5440 18631.6 -13744.9 -36.4169 23153.0
 12 06 2015  09 27  -21.5429 18631.5 -13744.9 -36.4171 23152.8
 12 06 2015  09 28  -21.5424 18631.3 -13745.0 -36.4175 23152.8
 12 06 2015  09 29  -21.5427 18631.7 -13744.9 -36.4168 23153.0
 12 06 2015  09 30  -21.5419 18631.5 -13745.0 -36.4172 23152.9
 12 06 2015  09 31  -21.5414 18631.9 -13745.0 -36.4167 23153.3
 12 06 2015  09 32  -21.5408 18631.7 -13745.0 -36.4170 23153.1
 12 06 2015  09 33  -21.5407 18631.9 -13745.1 -36.4169 23153.3
 12 06 2015  09 34  -21.5409 18632.4 -13745.0 -36.4159 23153.7
 12 06 2015  09 35  -21.5403 18631.8 -13745.1 -36.4170 23153.2
 12 06 2015  09 36  -21.5407 18633.0 -13745.0 -36.4150 23154.1
 12 06 2015  09 37  -21.5389 18632.5 -13745.0 -36.4156 23153.7
 12 06 2015  09 38  -21.5382 18633.0 -13745.0 -36.4148 23154.1
 12 06 2015  09 39  -21.5378 18633.3 -13745.0 -36.4146 23154.3
 12 06 2015  09 40  -21.5374 18633.4 -13745.0 -36.4144 23154.5
 12 06 2015  09 41  -21.5359 18633.7 -13745.0 -36.4138 23154.7
 12 06 2015  09 42  -21.5343 18634.0 -13745.0 -36.4134 23154.9
 12 06 2015  09 43  -21.5340 18634.0 -13745.0 -36.4134 23154.9
 12 06 2015  09 44  -21.5335 18634.3 -13745.0 -36.4131 23155.1
 12 06 2015  09 45  -21.5325 18634.5 -13745.0 -36.4128 23155.3
 12 06 2015  09 46  -21.5316 18634.8 -13745.1 -36.4125 23155.6
 12 06 2015  09 47  -21.5309 18635.0 -13745.1 -36.4122 23155.8
 12 06 2015  09 48  -21.5304 18634.8 -13745.2 -36.4126 23155.7
 12 06 2015  09 49  -21.5296 18635.2 -13745.2 -36.4121 23156.1
 12 06 2015  09 50  -21.5289 18635.2 -13745.3 -36.4123 23156.0
 12 06 2015  09 51  -21.5289 18635.6 -13745.2 -36.4116 23156.4
 12 06 2015  09 52  -21.5290 18635.5 -13745.3 -36.4119 23156.3
 12 06 2015  09 53  -21.5284 18635.7 -13745.3 -36.4115 23156.5
 12 06 2015  09 54  -21.5272 18636.1 -13745.3 -36.4110 23156.8
 12 06 2015  09 55  -21.5267 18636.2 -13745.3 -36.4110 23156.9
 12 06 2015  09 56  -21.5259 18636.4 -13745.4 -36.4108 23157.1
 12 06 2015  09 57  -21.5245 18636.7 -13745.4 -36.4104 23157.3
 12 06 2015  09 58  -21.5235 18637.0 -13745.4 -36.4099 23157.6
 12 06 2015  09 59  -21.5240 18637.1 -13745.5 -36.4099 23157.7
 12 06 2015  10 00  -21.5241 18637.3 -13745.5 -36.4098 23157.9
 12 06 2015  10 01  -21.5236 18637.3 -13745.6 -36.4098 23158.0
 12 06 2015  10 02  -21.5239 18637.6 -13745.6 -36.4095 23158.2
 12 06 2015  10 03  -21.5238 18637.6 -13745.7 -36.4097 23158.2
 12 06 2015  10 04  -21.5238 18637.7 -13745.8 -36.4096 23158.4
 12 06 2015  10 05  -21.5243 18637.5 -13745.9 -36.4102 23158.3
 12 06 2015  10 06  -21.5247 18637.8 -13746.0 -36.4099 23158.6
 12 06 2015  10 07  -21.5239 18638.1 -13746.1 -36.4097 23158.9
 12 06 2015  10 08  -21.5239 18638.3 -13746.1 -36.4095 23159.1
 12 06 2015  10 09  -21.5249 18638.2 -13746.2 -36.4098 23159.0
 12 06 2015  10 10  -21.5256 18638.3 -13746.2 -36.4097 23159.1
 12 06 2015  10 11  -21.5258 18638.4 -13746.4 -36.4099 23159.3
 12 06 2015  10 12  -21.5243 18638.5 -13746.5 -36.4100 23159.4
 12 06 2015  10 13  -21.5235 18638.8 -13746.5 -36.4095 23159.7
 12 06 2015  10 14  -21.5243 18638.8 -13746.5 -36.4095 23159.7
 12 06 2015  10 15  -21.5249 18638.8 -13746.7 -36.4099 23159.8
 12 06 2015  10 16  -21.5249 18639.1 -13746.7 -36.4096 23160.0
 12 06 2015  10 17  -21.5246 18638.8 -13746.9 -36.4102 23159.9
 12 06 2015  10 18  -21.5248 18639.2 -13746.9 -36.4097 23160.3
 12 06 2015  10 19  -21.5246 18639.3 -13747.0 -36.4097 23160.4
 12 06 2015  10 20  -21.5239 18639.1 -13747.1 -36.4102 23160.3
 12 06 2015  10 21  -21.5240 18639.6 -13747.2 -36.4097 23160.8
 12 06 2015  10 22  -21.5232 18639.7 -13747.2 -36.4095 23160.9
 12 06 2015  10 23  -21.5234 18639.8 -13747.3 -36.4096 23161.0
 12 06 2015  10 24  -21.5235 18640.3 -13747.4 -36.4091 23161.4
 12 06 2015  10 25  -21.5231 18640.5 -13747.4 -36.4087 23161.6
 12 06 2015  10 26  -21.5231 18640.5 -13747.5 -36.4089 23161.6
 12 06 2015  10 27  -21.5228 18640.8 -13747.5 -36.4085 23161.9
 12 06 2015  10 28  -21.5228 18640.6 -13747.5 -36.4089 23161.7
 12 06 2015  10 29  -21.5234 18641.2 -13747.6 -36.4083 23162.3
 12 06 2015  10 30  -21.5241 18641.0 -13747.6 -36.4083 23162.1
 12 06 2015  10 31  -21.5249 18641.0 -13747.5 -36.4083 23162.1
 12 06 2015  10 32  -21.5252 18641.0 -13747.6 -36.4084 23162.1
 12 06 2015  10 33  -21.5252 18641.2 -13747.6 -36.4081 23162.3
 12 06 2015  10 34  -21.5252 18641.5 -13747.6 -36.4077 23162.5
 12 06 2015  10 35  -21.5258 18641.5 -13747.6 -36.4077 23162.5
 12 06 2015  10 36  -21.5257 18641.8 -13747.6 -36.4071 23162.7
 12 06 2015  10 37  -21.5259 18642.0 -13747.6 -36.4070 23162.9
 12 06 2015  10 38  -21.5246 18642.4 -13747.5 -36.4062 23163.2
 12 06 2015  10 39  -21.5245 18642.8 -13747.6 -36.4058 23163.5
 12 06 2015  10 40  -21.5242 18642.6 -13747.6 -36.4061 23163.5
 12 06 2015  10 41  -21.5245 18642.8 -13747.7 -36.4059 23163.7
 12 06 2015  10 42  -21.5257 18642.7 -13747.7 -36.4062 23163.5
 12 06 2015  10 43  -21.5265 18642.6 -13747.8 -36.4064 23163.5
 12 06 2015  10 44  -21.5267 18642.9 -13747.8 -36.4060 23163.8
 12 06 2015  10 45  -21.5275 18642.9 -13747.7 -36.4059 23163.7
 12 06 2015  10 46  -21.5260 18643.0 -13747.7 -36.4055 23163.8
 12 06 2015  10 47  -21.5261 18643.8 -13747.7 -36.4045 23164.4
 12 06 2015  10 48  -21.5265 18643.7 -13747.7 -36.4047 23164.4
 12 06 2015  10 49  -21.5275 18643.6 -13747.6 -36.4047 23164.2
 12 06 2015  10 50  -21.5271 18643.9 -13747.6 -36.4042 23164.5
 12 06 2015  10 51  -21.5271 18644.2 -13747.7 -36.4039 23164.7
 12 06 2015  10 52  -21.5276 18644.0 -13747.7 -36.4042 23164.6
 12 06 2015  10 53  -21.5283 18644.1 -13747.6 -36.4040 23164.6
 12 06 2015  10 54  -21.5284 18644.2 -13747.6 -36.4037 23164.7
 12 06 2015  10 55  -21.5306 18644.2 -13747.6 -36.4038 23164.7
 12 06 2015  10 56  -21.5315 18644.1 -13747.7 -36.4042 23164.7
 12 06 2015  10 57  -21.5321 18644.2 -13747.7 -36.4040 23164.8
 12 06 2015  10 58  -21.5318 18644.3 -13747.8 -36.4039 23164.9
 12 06 2015  10 59  -21.5329 18644.2 -13747.9 -36.4042 23164.9
 12 06 2015  11 00  -21.5340 18644.1 -13747.8 -36.4043 23164.7
 12 06 2015  11 01  -21.5361 18644.0 -13747.9 -36.4045 23164.7
 12 06 2015  11 02  -21.5356 18643.8 -13747.7 -36.4046 23164.4
 12 06 2015  11 03  -21.5375 18644.3 -13747.8 -36.4039 23164.9
 12 06 2015  11 04  -21.5382 18644.4 -13747.8 -36.4039 23165.0
 12 06 2015  11 05  -21.5370 18644.6 -13747.9 -36.4036 23165.2
 12 06 2015  11 06  -21.5366 18644.7 -13747.9 -36.4036 23165.2
 12 06 2015  11 07  -21.5368 18644.7 -13748.0 -36.4037 23165.3
 12 06 2015  11 08  -21.5369 18644.9 -13747.9 -36.4034 23165.4
 12 06 2015  11 09  -21.5370 18645.1 -13747.9 -36.4030 23165.6
 12 06 2015  11 10  -21.5371 18645.3 -13747.8 -36.4026 23165.7
 12 06 2015  11 11  -21.5385 18644.9 -13747.8 -36.4032 23165.4
 12 06 2015  11 12  -21.5393 18645.1 -13747.9 -36.4029 23165.6
 12 06 2015  11 13  -21.5412 18645.5 -13747.9 -36.4025 23165.9
 12 06 2015  11 14  -21.5406 18645.8 -13747.9 -36.4020 23166.1
 12 06 2015  11 15  -21.5403 18646.0 -13747.8 -36.4014 23166.3
 12 06 2015  11 16  -21.5413 18646.1 -13747.7 -36.4012 23166.3
 12 06 2015  11 17  -21.5422 18645.8 -13747.6 -36.4015 23166.0
 12 06 2015  11 18  -21.5408 18645.9 -13747.6 -36.4012 23166.1
 12 06 2015  11 19  -21.5423 18645.9 -13747.5 -36.4010 23166.0
 12 06 2015  11 20  -21.5434 18646.4 -13747.3 -36.3999 23166.3
 12 06 2015  11 21  -21.5430 18646.6 -13747.4 -36.3998 23166.4
 12 06 2015  11 22  -21.5437 18646.6 -13747.2 -36.3994 23166.4
 12 06 2015  11 23  -21.5444 18646.5 -13747.1 -36.3995 23166.2
 12 06 2015  11 24  -21.5449 18646.6 -13747.1 -36.3993 23166.3
 12 06 2015  11 25  -21.5451 18647.1 -13747.0 -36.3983 23166.7
 12 06 2015  11 26  -21.5466 18646.9 -13747.0 -36.3985 23166.5
 12 06 2015  11 27  -21.5480 18647.1 -13746.9 -36.3982 23166.6
 12 06 2015  11 28  -21.5457 18647.5 -13746.8 -36.3973 23166.9
 12 06 2015  11 29  -21.5468 18647.6 -13746.6 -36.3968 23166.8
 12 06 2015  11 30  -21.5475 18647.8 -13746.6 -36.3964 23167.0
 12 06 2015  11 31  -21.5482 18647.6 -13746.5 -36.3965 23166.7
 12 06 2015  11 32  -21.5482 18648.3 -13746.4 -36.3953 23167.3
 12 06 2015  11 33  -21.5483 18648.6 -13746.3 -36.3947 23167.5
 12 06 2015  11 34  -21.5482 18648.7 -13746.3 -36.3945 23167.5
 12 06 2015  11 35  -21.5486 18648.7 -13746.2 -36.3944 23167.5
 12 06 2015  11 36  -21.5489 18648.6 -13746.3 -36.3946 23167.5
 12 06 2015  11 37  -21.5493 18648.9 -13746.4 -36.3943 23167.7
 12 06 2015  11 38  -21.5490 18649.0 -13746.3 -36.3941 23167.7
 12 06 2015  11 39  -21.5503 18648.8 -13746.3 -36.3944 23167.6
 12 06 2015  11 40  -21.5512 18648.9 -13746.3 -36.3943 23167.7
 12 06 2015  11 41  -21.5520 18649.1 -13746.3 -36.3940 23167.8
 12 06 2015  11 42  -21.5520 18649.6 -13746.3 -36.3932 23168.2
 12 06 2015  11 43  -21.5536 18649.4 -13746.1 -36.3932 23168.0
 12 06 2015  11 44  -21.5530 18649.5 -13746.1 -36.3930 23168.0
 12 06 2015  11 45  -21.5535 18649.5 -13746.0 -36.3928 23168.0
 12 06 2015  11 46  -21.5539 18649.5 -13746.1 -36.3930 23168.0
 12 06 2015  11 47  -21.5530 18650.0 -13746.1 -36.3923 23168.5
 12 06 2015  11 48  -21.5541 18649.9 -13745.9 -36.3918 23168.3
 12 06 2015  11 49  -21.5556 18649.5 -13745.8 -36.3924 23167.9
 12 06 2015  11 50  -21.5551 18650.5 -13745.9 -36.3910 23168.8
 12 06 2015  11 51  -21.5556 18650.7 -13745.6 -36.3903 23168.7
 12 06 2015  11 52  -21.5535 18651.5 -13745.6 -36.3890 23169.3
 12 06 2015  11 53  -21.5524 18651.6 -13745.4 -36.3885 23169.4
 12 06 2015  11 54  -21.5530 18651.9 -13745.3 -36.3877 23169.5
 12 06 2015  11 55  -21.5535 18652.0 -13745.2 -36.3875 23169.5
 12 06 2015  11 56  -21.5550 18652.2 -13745.1 -36.3869 23169.7
 12 06 2015  11 57  -21.5563 18652.3 -13744.9 -36.3866 23169.6
 12 06 2015  11 58  -21.5559 18652.7 -13744.9 -36.3857 23169.9
 12 06 2015  11 59  -21.5557 18653.4 -13744.7 -36.3844 23170.4
 12 06 2015  12 00  -21.5561 18653.4 -13744.6 -36.3843 23170.3
 12 06 2015  12 01  -21.5563 18653.6 -13744.5 -36.3838 23170.4
 12 06 2015  12 02  -21.5570 18653.6 -13744.4 -36.3836 23170.3
 12 06 2015  12 03  -21.5579 18654.0 -13744.4 -36.3829 23170.6
 12 06 2015  12 04  -21.5572 18654.3 -13744.2 -36.3821 23170.8
 12 06 2015  12 05  -21.5571 18654.6 -13744.0 -36.3813 23170.9
 12 06 2015  12 06  -21.5577 18654.7 -13743.9 -36.3810 23171.0
 12 06 2015  12 07  -21.5574 18655.4 -13743.7 -36.3796 23171.4
 12 06 2015  12 08  -21.5571 18655.5 -13743.6 -36.3791 23171.4
 12 06 2015  12 09  -21.5581 18655.3 -13743.5 -36.3792 23171.2
 12 06 2015  12 10  -21.5586 18655.5 -13743.4 -36.3788 23171.3
 12 06 2015  12 11  -21.5592 18655.5 -13743.3 -36.3786 23171.2
 12 06 2015  12 12  -21.5600 18655.5 -13743.1 -36.3783 23171.1
 12 06 2015  12 13  -21.5597 18655.4 -13743.0 -36.3781 23171.0
 12 06 2015  12 14  -21.5581 18656.1 -13742.7 -36.3766 23171.3
 12 06 2015  12 15  -21.5598 18656.6 -13742.6 -36.3756 23171.7
 12 06 2015  12 16  -21.5616 18656.2 -13742.5 -36.3759 23171.3
 12 06 2015  12 17  -21.5604 18656.9 -13742.4 -36.3747 23171.8
 12 06 2015  12 18  -21.5610 18656.8 -13742.2 -36.3745 23171.6
 12 06 2015  12 19  -21.5613 18656.7 -13742.1 -36.3744 23171.5
 12 06 2015  12 20  -21.5601 18657.5 -13742.0 -36.3732 23172.1
 12 06 2015  12 21  -21.5623 18656.8 -13741.8 -36.3738 23171.4
 12 06 2015  12 22  -21.5627 18657.1 -13741.7 -36.3731 23171.6
 12 06 2015  12 23  -21.5625 18657.4 -13741.6 -36.3724 23171.7
 12 06 2015  12 24  -21.5622 18657.6 -13741.4 -36.3717 23171.8
 12 06 2015  12 25  -21.5616 18658.0 -13741.3 -36.3709 23172.1
 12 06 2015  12 26  -21.5613 18658.3 -13741.2 -36.3703 23172.2
 12 06 2015  12 27  -21.5610 18658.3 -13741.0 -36.3699 23172.2
 12 06 2015  12 28  -21.5601 18658.9 -13740.8 -36.3687 23172.5
 12 06 2015  12 29  -21.5617 18658.5 -13740.7 -36.3690 23172.0
 12 06 2015  12 30  -21.5611 18658.6 -13740.6 -36.3687 23172.1
 12 06 2015  12 31  -21.5642 18657.3 -13740.6 -36.3705 23171.0
 12 06 2015  12 32  -21.5634 18657.6 -13740.5 -36.3699 23171.3
 12 06 2015  12 33  -21.5650 18657.9 -13740.4 -36.3693 23171.4
 12 06 2015  12 34  -21.5668 18657.7 -13740.1 -36.3690 23171.1
 12 06 2015  12 35  -21.5658 18658.6 -13740.0 -36.3673 23171.8
 12 06 2015  12 36  -21.5673 18658.6 -13739.6 -36.3668 23171.5
 12 06 2015  12 37  -21.5663 18659.1 -13739.5 -36.3656 23171.9
 12 06 2015  12 38  -21.5667 18659.2 -13739.2 -36.3651 23171.8
 12 06 2015  12 39  -21.5664 18659.4 -13739.0 -36.3644 23171.8
 12 06 2015  12 40  -21.5651 18660.1 -13739.0 -36.3633 23172.3
 12 06 2015  12 41  -21.5649 18660.2 -13738.8 -36.3626 23172.4
 12 06 2015  12 42  -21.5650 18660.0 -13738.6 -36.3626 23172.1
 12 06 2015  12 43  -21.5644 18660.1 -13738.6 -36.3625 23172.2
 12 06 2015  12 44  -21.5656 18659.8 -13738.6 -36.3629 23171.9
 12 06 2015  12 45  -21.5650 18660.0 -13738.6 -36.3626 23172.1
 12 06 2015  12 46  -21.5661 18659.7 -13738.5 -36.3628 23171.8
 12 06 2015  12 47  -21.5660 18660.3 -13738.4 -36.3617 23172.2
 12 06 2015  12 48  -21.5675 18660.2 -13738.2 -36.3616 23172.0
 12 06 2015  12 49  -21.5670 18660.6 -13738.1 -36.3607 23172.2
 12 06 2015  12 50  -21.5683 18660.4 -13738.0 -36.3608 23172.0
 12 06 2015  12 51  -21.5661 18661.8 -13737.8 -36.3584 23173.1
 12 06 2015  12 52  -21.5673 18661.2 -13737.6 -36.3587 23172.4
 12 06 2015  12 53  -21.5683 18660.7 -13737.6 -36.3597 23172.0
 12 06 2015  12 54  -21.5680 18661.0 -13737.5 -36.3590 23172.3
 12 06 2015  12 55  -21.5671 18662.0 -13737.3 -36.3572 23172.9
 12 06 2015  12 56  -21.5669 18662.3 -13737.2 -36.3564 23173.1
 12 06 2015  12 57  -21.5658 18662.8 -13737.1 -36.3555 23173.4
 12 06 2015  12 58  -21.5655 18663.1 -13736.9 -36.3546 23173.5
 12 06 2015  12 59  -21.5655 18663.5 -13736.8 -36.3540 23173.8
 12 06 2015  13 00  -21.5648 18664.0 -13736.8 -36.3531 23174.2
 12 06 2015  13 01  -21.5649 18663.8 -13736.7 -36.3533 23174.0
 12 06 2015  13 02  -21.5640 18664.5 -13736.8 -36.3524 23174.6
 12 06 2015  13 03  -21.5640 18664.5 -13736.6 -36.3519 23174.5
 12 06 2015  13 04  -21.5637 18664.8 -13736.5 -36.3514 23174.6
 12 06 2015  13 05  -21.5631 18665.2 -13736.4 -36.3506 23174.9
 12 06 2015  13 06  -21.5626 18665.2 -13736.3 -36.3504 23174.8
 12 06 2015  13 07  -21.5584 18668.2 -13736.0 -36.3455 23177.2
 12 06 2015  13 08  -21.5532 18671.1 -13735.5 -36.3402 23179.2
 12 06 2015  13 09  -21.5461 18674.6 -13734.9 -36.3340 23181.7
 12 06 2015  13 10  -21.5411 18676.7 -13734.5 -36.3300 23183.1
 12 06 2015  13 11  -21.5376 18677.9 -13734.2 -36.3277 23183.9
 12 06 2015  13 12  -21.5366 18679.1 -13733.8 -36.3250 23184.6
 12 06 2015  13 13  -21.5348 18680.3 -13733.4 -36.3225 23185.4
 12 06 2015  13 14  -21.5342 18680.2 -13733.2 -36.3221 23185.1
 12 06 2015  13 15  -21.5336 18679.7 -13733.1 -36.3229 23184.7
 12 06 2015  13 16  -21.5328 18679.7 -13733.1 -36.3229 23184.7
 12 06 2015  13 17  -21.5325 18679.6 -13733.2 -36.3230 23184.7
 12 06 2015  13 18  -21.5320 18680.5 -13733.0 -36.3214 23185.3
 12 06 2015  13 19  -21.5322 18681.1 -13732.9 -36.3203 23185.7
 12 06 2015  13 20  -21.5324 18681.2 -13732.8 -36.3200 23185.7
 12 06 2015  13 21  -21.5334 18680.6 -13732.8 -36.3208 23185.2
 12 06 2015  13 22  -21.5330 18680.5 -13732.8 -36.3211 23185.2
 12 06 2015  13 23  -21.5325 18681.0 -13732.9 -36.3205 23185.5
 12 06 2015  13 24  -21.5312 18681.6 -13732.8 -36.3195 23186.1
 12 06 2015  13 25  -21.5302 18682.4 -13732.8 -36.3182 23186.7
 12 06 2015  13 26  -21.5298 18682.3 -13732.7 -36.3182 23186.6
 12 06 2015  13 27  -21.5301 18682.1 -13732.9 -36.3188 23186.5
 12 06 2015  13 28  -21.5297 18681.7 -13733.0 -36.3197 23186.2
 12 06 2015  13 29  -21.5298 18680.9 -13733.2 -36.3212 23185.7
 12 06 2015  13 30  -21.5301 18680.1 -13733.5 -36.3230 23185.2
 12 06 2015  13 31  -21.5306 18679.7 -13733.7 -36.3240 23185.0
 12 06 2015  13 32  -21.5328 18679.0 -13733.9 -36.3254 23184.5
 12 06 2015  13 33  -21.5352 18678.4 -13734.0 -36.3265 23184.2
 12 06 2015  13 34  -21.5370 18678.0 -13734.1 -36.3273 23183.9
 12 06 2015  13 35  -21.5379 18677.7 -13734.1 -36.3279 23183.6
 12 06 2015  13 36  -21.5374 18678.0 -13734.3 -36.3276 23184.0
 12 06 2015  13 37  -21.5385 18678.1 -13734.1 -36.3272 23184.0
 12 06 2015  13 38  -21.5400 18677.5 -13734.2 -36.3282 23183.6
 12 06 2015  13 39  -21.5401 18677.8 -13734.2 -36.3277 23183.8
 12 06 2015  13 40  -21.5403 18678.1 -13734.1 -36.3272 23184.0
 12 06 2015  13 41  -21.5391 18679.0 -13734.0 -36.3256 23184.7
 12 06 2015  13 42  -21.5382 18679.3 -13733.8 -36.3247 23184.8
 12 06 2015  13 43  -21.5359 18680.7 -13733.7 -36.3225 23185.9
 12 06 2015  13 44  -21.5358 18680.9 -13733.5 -36.3219 23185.9
 12 06 2015  13 45  -21.5361 18680.7 -13733.4 -36.3220 23185.6
 12 06 2015  13 46  -21.5359 18679.7 -13733.6 -36.3237 23184.9
 12 06 2015  13 47  -21.5348 18679.5 -13733.7 -36.3244 23184.8
 12 06 2015  13 48  -21.5341 18679.1 -13733.8 -36.3252 23184.6
 12 06 2015  13 49  -21.5345 18678.8 -13733.9 -36.3258 23184.4
 12 06 2015  13 50  -21.5360 18678.2 -13734.0 -36.3268 23184.0
 12 06 2015  13 51  -21.5377 18677.8 -13734.0 -36.3274 23183.7
 12 06 2015  13 52  -21.5375 18678.7 -13733.9 -36.3260 23184.3
 12 06 2015  13 53  -21.5373 18679.3 -13733.6 -36.3245 23184.7
 12 06 2015  13 54  -21.5369 18679.9 -13733.5 -36.3232 23185.1
 12 06 2015  13 55  -21.5347 18681.2 -13733.2 -36.3209 23185.9
 12 06 2015  13 56  -21.5317 18682.6 -13733.0 -36.3184 23186.9
 12 06 2015  13 57  -21.5297 18683.5 -13732.8 -36.3168 23187.5
 12 06 2015  13 58  -21.5280 18684.0 -13732.7 -36.3157 23188.0
 12 06 2015  13 59  -21.5266 18684.5 -13732.7 -36.3149 23188.3
 12 06 2015  14 00  -21.5265 18684.1 -13732.7 -36.3155 23188.0
 12 06 2015  14 01  -21.5270 18683.5 -13732.7 -36.3165 23187.5
 12 06 2015  14 02  -21.5278 18683.3 -13732.7 -36.3167 23187.3
 12 06 2015  14 03  -21.5285 18683.4 -13732.6 -36.3165 23187.3
 12 06 2015  14 04  -21.5287 18683.6 -13732.6 -36.3161 23187.5
 12 06 2015  14 05  -21.5271 18684.8 -13732.4 -36.3141 23188.4
 12 06 2015  14 06  -21.5262 18685.1 -13732.3 -36.3133 23188.6
 12 06 2015  14 07  -21.5245 18685.6 -13732.2 -36.3124 23188.9
 12 06 2015  14 08  -21.5236 18685.7 -13732.1 -36.3120 23188.9
 12 06 2015  14 09  -21.5238 18685.8 -13732.1 -36.3119 23189.0
 12 06 2015  14 10  -21.5234 18686.4 -13732.0 -36.3108 23189.4
 12 06 2015  14 11  -21.5222 18687.1 -13731.9 -36.3096 23189.9
 12 06 2015  14 12  -21.5215 18687.4 -13731.9 -36.3091 23190.2
 12 06 2015  14 13  -21.5210 18687.6 -13731.9 -36.3089 23190.4
 12 06 2015  14 14  -21.5206 18687.6 -13732.0 -36.3089 23190.4
 12 06 2015  14 15  -21.5216 18687.2 -13732.0 -36.3097 23190.0
 12 06 2015  14 16  -21.5231 18686.8 -13732.1 -36.3105 23189.8
 12 06 2015  14 17  -21.5236 18686.8 -13732.2 -36.3105 23189.9
 12 06 2015  14 18  -21.5241 18686.7 -13732.3 -36.3109 23189.8
 12 06 2015  14 19  -21.5244 18686.6 -13732.3 -36.3111 23189.8
 12 06 2015  14 20  -21.5241 18686.7 -13732.4 -36.3113 23189.9
 12 06 2015  14 21  -21.5241 18686.7 -13732.4 -36.3111 23189.9
 12 06 2015  14 22  -21.5251 18686.5 -13732.4 -36.3115 23189.7
 12 06 2015  14 23  -21.5259 18686.2 -13732.5 -36.3119 23189.6
 12 06 2015  14 24  -21.5259 18686.6 -13732.4 -36.3114 23189.8
 12 06 2015  14 25  -21.5269 18686.4 -13732.3 -36.3114 23189.6
 12 06 2015  14 26  -21.5285 18685.7 -13732.1 -36.3121 23188.9
 12 06 2015  14 27  -21.5287 18684.8 -13732.1 -36.3134 23188.2
 12 06 2015  14 28  -21.5285 18684.2 -13732.2 -36.3145 23187.7
 12 06 2015  14 29  -21.5283 18684.1 -13732.1 -36.3145 23187.6
 12 06 2015  14 30  -21.5281 18683.9 -13732.1 -36.3147 23187.4
 12 06 2015  14 31  -21.5287 18683.3 -13732.2 -36.3157 23187.0
 12 06 2015  14 32  -21.5294 18682.9 -13732.2 -36.3162 23186.7
 12 06 2015  14 33  -21.5296 18682.7 -13732.2 -36.3166 23186.6
 12 06 2015  14 34  -21.5291 18683.1 -13732.1 -36.3159 23186.8
 12 06 2015  14 35  -21.5294 18683.4 -13732.0 -36.3152 23187.0
 12 06 2015  14 36  -21.5299 18683.3 -13731.8 -36.3151 23186.8
 12 06 2015  14 37  -21.5310 18682.6 -13731.8 -36.3160 23186.2
 12 06 2015  14 38  -21.5328 18681.2 -13731.8 -36.3181 23185.1
 12 06 2015  14 39  -21.5347 18679.5 -13731.9 -36.3208 23183.8
 12 06 2015  14 40  -21.5361 18677.9 -13732.1 -36.3234 23182.7
 12 06 2015  14 41  -21.5375 18676.7 -13732.3 -36.3255 23181.8
 12 06 2015  14 42  -21.5381 18675.8 -13732.4 -36.3272 23181.1
 12 06 2015  14 43  -21.5383 18675.2 -13732.4 -36.3280 23180.7
 12 06 2015  14 44  -21.5386 18675.3 -13732.4 -36.3278 23180.8
 12 06 2015  14 45  -21.5395 18675.7 -13732.2 -36.3269 23180.9
 12 06 2015  14 46  -21.5399 18676.4 -13732.0 -36.3255 23181.3
 12 06 2015  14 47  -21.5401 18676.5 -13731.8 -36.3249 23181.3
 12 06 2015  14 48  -21.5401 18676.5 -13731.6 -36.3246 23181.2
 12 06 2015  14 49  -21.5401 18676.4 -13731.5 -36.3245 23181.0
 12 06 2015  14 50  -21.5401 18676.0 -13731.6 -36.3252 23180.8
 12 06 2015  14 51  -21.5400 18675.9 -13731.5 -36.3252 23180.6
 12 06 2015  14 52  -21.5407 18675.6 -13731.5 -36.3255 23180.4
 12 06 2015  14 53  -21.5412 18675.3 -13731.5 -36.3259 23180.2
 12 06 2015  14 54  -21.5421 18674.8 -13731.5 -36.3268 23179.8
 12 06 2015  14 55  -21.5426 18674.2 -13731.6 -36.3278 23179.3
 12 06 2015  14 56  -21.5422 18674.0 -13731.7 -36.3284 23179.2
 12 06 2015  14 57  -21.5426 18673.8 -13731.7 -36.3287 23179.0
 12 06 2015  14 58  -21.5420 18673.9 -13731.8 -36.3287 23179.2
 12 06 2015  14 59  -21.5412 18674.1 -13731.8 -36.3283 23179.4
 12 06 2015  15 00  -21.5417 18673.9 -13731.7 -36.3285 23179.2
 12 06 2015  15 01  -21.5418 18673.8 -13731.7 -36.3288 23179.1
 12 06 2015  15 02  -21.5423 18673.9 -13731.7 -36.3285 23179.1
 12 06 2015  15 03  -21.5423 18673.7 -13731.7 -36.3289 23179.0
 12 06 2015  15 04  -21.5426 18673.6 -13731.7 -36.3289 23178.9
 12 06 2015  15 05  -21.5432 18673.0 -13731.8 -36.3300 23178.5
 12 06 2015  15 06  -21.5430 18672.4 -13732.0 -36.3312 23178.1
 12 06 2015  15 07  -21.5426 18671.8 -13732.1 -36.3324 23177.7
 12 06 2015  15 08  -21.5430 18671.2 -13732.3 -36.3336 23177.4
 12 06 2015  15 09  -21.5448 18670.4 -13732.4 -36.3350 23176.8
 12 06 2015  15 10  -21.5452 18669.6 -13732.6 -36.3366 23176.2
 12 06 2015  15 11  -21.5459 18668.5 -13732.8 -36.3387 23175.5
 12 06 2015  15 12  -21.5476 18667.8 -13732.9 -36.3398 23174.9
 12 06 2015  15 13  -21.5488 18667.2 -13732.9 -36.3408 23174.5
 12 06 2015  15 14  -21.5499 18666.5 -13732.9 -36.3418 23174.0
 12 06 2015  15 15  -21.5496 18666.7 -13732.9 -36.3414 23174.1
 12 06 2015  15 16  -21.5502 18666.4 -13732.9 -36.3418 23173.8
 12 06 2015  15 17  -21.5509 18666.2 -13732.8 -36.3421 23173.6
 12 06 2015  15 18  -21.5509 18666.5 -13732.7 -36.3415 23173.8
 12 06 2015  15 19  -21.5517 18666.2 -13732.6 -36.3416 23173.5
 12 06 2015  15 20  -21.5512 18666.6 -13732.5 -36.3408 23173.7
 12 06 2015  15 21  -21.5500 18667.2 -13732.5 -36.3399 23174.2
 12 06 2015  15 22  -21.5505 18667.3 -13732.3 -36.3395 23174.2
 12 06 2015  15 23  -21.5505 18667.4 -13732.4 -36.3394 23174.3
 12 06 2015  15 24  -21.5509 18667.6 -13732.4 -36.3391 23174.5
 12 06 2015  15 25  -21.5455 18672.7 -13732.1 -36.3311 23178.5
 12 06 2015  15 26  -21.5468 18672.9 -13731.6 -36.3296 23178.3
 12 06 2015  15 27  -21.5441 18673.9 -13731.5 -36.3281 23179.0
 12 06 2015  15 28  -21.5424 18674.1 -13731.5 -36.3278 23179.2
 12 06 2015  15 29  -21.5425 18673.2 -13731.5 -36.3290 23178.5
 12 06 2015  15 30  -21.5422 18673.3 -13731.7 -36.3294 23178.6
 12 06 2015  15 31  -21.5404 18674.5 -13731.7 -36.3277 23179.7
 12 06 2015  15 32  -21.5406 18674.4 -13731.7 -36.3278 23179.6
 12 06 2015  15 33  -21.5402 18674.9 -13731.7 -36.3272 23180.0
 12 06 2015  15 34  -21.5405 18674.4 -13731.8 -36.3280 23179.6
 12 06 2015  15 35  -21.5428 18671.8 -13732.0 -36.3322 23177.6
 12 06 2015  15 36  -21.5429 18670.5 -13732.4 -36.3350 23176.8
 12 06 2015  15 37  -21.5437 18669.6 -13732.7 -36.3368 23176.3
 12 06 2015  15 38  -21.5440 18669.6 -13732.7 -36.3368 23176.3
 12 06 2015  15 39  -21.5447 18669.0 -13732.7 -36.3376 23175.8
 12 06 2015  15 40  -21.5441 18668.8 -13732.7 -36.3380 23175.7
 12 06 2015  15 41  -21.5445 18668.2 -13732.7 -36.3389 23175.1
 12 06 2015  15 42  -21.5456 18667.5 -13732.7 -36.3399 23174.6
 12 06 2015  15 43  -21.5455 18667.5 -13732.6 -36.3397 23174.6
 12 06 2015  15 44  -21.5459 18666.9 -13732.5 -36.3404 23174.0
 12 06 2015  15 45  -21.5459 18666.3 -13732.5 -36.3413 23173.6
 12 06 2015  15 46  -21.5457 18666.6 -13732.4 -36.3407 23173.7
 12 06 2015  15 47  -21.5452 18666.8 -13732.3 -36.3400 23173.8
 12 06 2015  15 48  -21.5437 18667.4 -13732.1 -36.3388 23174.2
 12 06 2015  15 49  -21.5429 18667.5 -13731.9 -36.3384 23174.1
 12 06 2015  15 50  -21.5424 18667.6 -13731.8 -36.3380 23174.1
 12 06 2015  15 51  -21.5428 18667.1 -13731.8 -36.3386 23173.8
 12 06 2015  15 52  -21.5431 18666.9 -13731.7 -36.3388 23173.6
 12 06 2015  15 53  -21.5429 18667.0 -13731.7 -36.3385 23173.6
 12 06 2015  15 54  -21.5419 18667.9 -13731.6 -36.3371 23174.3
 12 06 2015  15 55  -21.5405 18668.6 -13731.5 -36.3359 23174.7
 12 06 2015  15 56  -21.5392 18668.6 -13731.4 -36.3357 23174.7
 12 06 2015  15 57  -21.5372 18668.6 -13731.5 -36.3359 23174.7
 12 06 2015  15 58  -21.5357 18668.5 -13731.5 -36.3360 23174.7
 12 06 2015  15 59  -21.5347 18668.4 -13731.5 -36.3362 23174.6
 12 06 2015  16 00  -21.5342 18668.6 -13731.5 -36.3360 23174.8
 12 06 2015  16 01  -21.5334 18668.5 -13731.5 -36.3360 23174.8
 12 06 2015  16 02  -21.5315 18669.7 -13731.4 -36.3341 23175.6
 12 06 2015  16 03  -21.5307 18669.7 -13731.2 -36.3338 23175.5
 12 06 2015  16 04  -21.5290 18670.2 -13731.2 -36.3328 23175.9
 12 06 2015  16 05  -21.5276 18670.4 -13731.1 -36.3325 23176.0
 12 06 2015  16 06  -21.5266 18670.7 -13731.2 -36.3322 23176.3
 12 06 2015  16 07  -21.5266 18671.2 -13731.2 -36.3315 23176.7
 12 06 2015  16 08  -21.5277 18670.7 -13731.2 -36.3323 23176.3
 12 06 2015  16 09  -21.5267 18670.9 -13731.2 -36.3320 23176.5
 12 06 2015  16 10  -21.5277 18671.2 -13731.3 -36.3317 23176.8
 12 06 2015  16 11  -21.5289 18671.4 -13731.1 -36.3311 23176.8
 12 06 2015  16 12  -21.5286 18672.3 -13731.0 -36.3295 23177.5
 12 06 2015  16 13  -21.5280 18672.8 -13730.8 -36.3284 23177.8
 12 06 2015  16 14  -21.5274 18672.7 -13730.7 -36.3283 23177.6
 12 06 2015  16 15  -21.5267 18673.5 -13730.5 -36.3268 23178.1
 12 06 2015  16 16  -21.5270 18673.7 -13730.3 -36.3260 23178.2
 12 06 2015  16 17  -21.5287 18672.9 -13730.1 -36.3268 23177.5
 12 06 2015  16 18  -21.5296 18672.0 -13730.1 -36.3281 23176.7
 12 06 2015  16 19  -21.5293 18672.0 -13730.1 -36.3281 23176.7
 12 06 2015  16 20  -21.5303 18671.6 -13730.0 -36.3284 23176.3
 12 06 2015  16 21  -21.5311 18671.0 -13729.8 -36.3290 23175.7
 12 06 2015  16 22  -21.5323 18670.6 -13729.7 -36.3294 23175.3
 12 06 2015  16 23  -21.5332 18669.5 -13729.7 -36.3310 23174.4
 12 06 2015  16 24  -21.5337 18669.1 -13729.7 -36.3315 23174.1
 12 06 2015  16 25  -21.5341 18668.7 -13729.6 -36.3319 23173.7
 12 06 2015  16 26  -21.5345 18668.6 -13729.4 -36.3317 23173.6
 12 06 2015  16 27  -21.5349 18668.3 -13729.3 -36.3320 23173.2
 12 06 2015  16 28  -21.5336 18668.4 -13729.3 -36.3317 23173.3
 12 06 2015  16 29  -21.5341 18668.1 -13729.1 -36.3319 23173.0
 12 06 2015  16 30  -21.5344 18667.5 -13729.0 -36.3325 23172.4
 12 06 2015  16 31  -21.5344 18667.0 -13729.0 -36.3333 23172.0
 12 06 2015  16 32  -21.5331 18666.7 -13729.1 -36.3339 23171.9
 12 06 2015  16 33  -21.5344 18665.4 -13729.3 -36.3362 23170.9
 12 06 2015  16 34  -21.5354 18664.9 -13729.3 -36.3369 23170.5
 12 06 2015  16 35  -21.5331 18665.3 -13729.3 -36.3364 23170.9
 12 06 2015  16 36  -21.5313 18665.4 -13729.3 -36.3362 23170.9
 12 06 2015  16 37  -21.5307 18665.4 -13729.2 -36.3360 23170.9
 12 06 2015  16 38  -21.5315 18665.2 -13729.2 -36.3364 23170.7
 12 06 2015  16 39  -21.5322 18664.9 -13729.2 -36.3367 23170.4
 12 06 2015  16 40  -21.5322 18664.8 -13729.2 -36.3368 23170.4
 12 06 2015  16 41  -21.5320 18664.5 -13729.1 -36.3371 23170.1
 12 06 2015  16 42  -21.5333 18663.8 -13729.0 -36.3380 23169.4
 12 06 2015  16 43  -21.5340 18663.1 -13729.0 -36.3389 23168.9
 12 06 2015  16 44  -21.5345 18662.9 -13728.9 -36.3390 23168.7
 12 06 2015  16 45  -21.5355 18662.0 -13728.8 -36.3402 23167.9
 12 06 2015  16 46  -21.5352 18661.5 -13728.8 -36.3409 23167.5
 12 06 2015  16 47  -21.5348 18661.6 -13728.7 -36.3406 23167.5
 12 06 2015  16 48  -21.5348 18661.9 -13728.5 -36.3399 23167.6
 12 06 2015  16 49  -21.5340 18661.8 -13728.4 -36.3397 23167.5
 12 06 2015  16 50  -21.5317 18662.1 -13728.3 -36.3391 23167.6
 12 06 2015  16 51  -21.5297 18662.6 -13728.2 -36.3380 23168.0
 12 06 2015  16 52  -21.5289 18663.0 -13728.0 -36.3371 23168.2
 12 06 2015  16 53  -21.5279 18663.1 -13727.9 -36.3367 23168.2
 12 06 2015  16 54  -21.5248 18663.7 -13727.8 -36.3357 23168.6
 12 06 2015  16 55  -21.5217 18664.4 -13727.8 -36.3346 23169.1
 12 06 2015  16 56  -21.5212 18664.6 -13727.7 -36.3341 23169.3
 12 06 2015  16 57  -21.5217 18664.5 -13727.5 -36.3340 23169.1
 12 06 2015  16 58  -21.5206 18664.4 -13727.5 -36.3340 23169.1
 12 06 2015  16 59  -21.5184 18664.6 -13727.5 -36.3338 23169.2
 12 06 2015  17 00  -21.5167 18665.0 -13727.4 -36.3331 23169.4
 12 06 2015  17 01  -21.5152 18665.1 -13727.4 -36.3329 23169.6
 12 06 2015  17 02  -21.5149 18665.1 -13727.4 -36.3328 23169.5
 12 06 2015  17 03  -21.5145 18665.0 -13727.4 -36.3330 23169.4
 12 06 2015  17 04  -21.5144 18664.4 -13727.5 -36.3341 23169.0
 12 06 2015  17 05  -21.5138 18664.2 -13727.5 -36.3343 23168.9
 12 06 2015  17 06  -21.5142 18664.1 -13727.4 -36.3344 23168.7
 12 06 2015  17 07  -21.5146 18663.3 -13727.5 -36.3356 23168.2
 12 06 2015  17 08  -21.5137 18663.7 -13727.5 -36.3351 23168.5
 12 06 2015  17 09  -21.5131 18663.7 -13727.5 -36.3350 23168.4
 12 06 2015  17 10  -21.5130 18662.5 -13727.5 -36.3369 23167.5
 12 06 2015  17 11  -21.5132 18661.9 -13727.6 -36.3380 23167.1
 12 06 2015  17 12  -21.5130 18662.1 -13727.7 -36.3379 23167.3
 12 06 2015  17 13  -21.5130 18662.0 -13727.7 -36.3381 23167.2
 12 06 2015  17 14  -21.5117 18662.2 -13727.7 -36.3378 23167.4
 12 06 2015  17 15  -21.5117 18661.8 -13727.8 -36.3384 23167.1
 12 06 2015  17 16  -21.5116 18661.4 -13727.9 -36.3393 23166.8
 12 06 2015  17 17  -21.5105 18661.5 -13727.9 -36.3391 23167.0
 12 06 2015  17 18  -21.5100 18661.9 -13727.9 -36.3385 23167.3
 12 06 2015  17 19  -21.5102 18661.9 -13727.9 -36.3386 23167.2
 12 06 2015  17 20  -21.5101 18661.7 -13727.9 -36.3388 23167.1
 12 06 2015  17 21  -21.5085 18662.0 -13727.9 -36.3384 23167.4
 12 06 2015  17 22  -21.5061 18663.1 -13727.9 -36.3368 23168.2
 12 06 2015  17 23  -21.5053 18664.0 -13727.8 -36.3352 23168.8
 12 06 2015  17 24  -21.5073 18663.7 -13727.6 -36.3353 23168.6
 12 06 2015  17 25  -21.5084 18663.2 -13727.7 -36.3362 23168.2
 12 06 2015  17 26  -21.5061 18663.2 -13727.8 -36.3365 23168.3
 12 06 2015  17 27  -21.5039 18663.3 -13728.0 -36.3366 23168.5
 12 06 2015  17 28  -21.5033 18663.1 -13728.2 -36.3373 23168.4
 12 06 2015  17 29  -21.5030 18663.0 -13728.3 -36.3377 23168.4
 12 06 2015  17 30  -21.5038 18663.2 -13728.3 -36.3375 23168.5
 12 06 2015  17 31  -21.5041 18662.7 -13728.4 -36.3382 23168.2
 12 06 2015  17 32  -21.5072 18661.0 -13728.6 -36.3412 23166.9
 12 06 2015  17 33  -21.5087 18659.6 -13728.9 -36.3439 23165.9
 12 06 2015  17 34  -21.5107 18657.7 -13729.2 -36.3473 23164.6
 12 06 2015  17 35  -21.5103 18656.5 -13729.5 -36.3496 23163.9
 12 06 2015  17 36  -21.5089 18656.0 -13729.7 -36.3508 23163.6
 12 06 2015  17 37  -21.5078 18656.1 -13730.0 -36.3511 23163.8
 12 06 2015  17 38  -21.5061 18657.7 -13729.9 -36.3487 23165.1
 12 06 2015  17 39  -21.5080 18658.6 -13729.7 -36.3469 23165.7
 12 06 2015  17 40  -21.5096 18658.7 -13729.6 -36.3466 23165.6
 12 06 2015  17 41  -21.5104 18657.4 -13729.7 -36.3486 23164.7
 12 06 2015  17 42  -21.5096 18656.6 -13730.0 -36.3504 23164.3
 12 06 2015  17 43  -21.5087 18656.5 -13730.2 -36.3509 23164.3
 12 06 2015  17 44  -21.5085 18657.2 -13730.3 -36.3502 23164.9
 12 06 2015  17 45  -21.5101 18657.1 -13730.4 -36.3505 23164.9
 12 06 2015  17 46  -21.5104 18657.4 -13730.4 -36.3501 23165.1
 12 06 2015  17 47  -21.5089 18658.4 -13730.4 -36.3487 23165.9
 12 06 2015  17 48  -21.5078 18659.0 -13730.4 -36.3478 23166.4
 12 06 2015  17 49  -21.5063 18659.6 -13730.5 -36.3471 23166.9
 12 06 2015  17 50  -21.5057 18659.9 -13730.5 -36.3466 23167.2
 12 06 2015  17 51  -21.5059 18659.4 -13730.7 -36.3477 23166.9
 12 06 2015  17 52  -21.5053 18659.7 -13730.9 -36.3477 23167.2
 12 06 2015  17 53  -21.5041 18660.3 -13731.0 -36.3472 23167.8
 12 06 2015  17 54  -21.5032 18661.0 -13731.1 -36.3462 23168.4
 12 06 2015  17 55  -21.5029 18661.4 -13731.1 -36.3457 23168.8
 12 06 2015  17 56  -21.5026 18661.6 -13731.2 -36.3455 23168.9
 12 06 2015  17 57  -21.5031 18660.9 -13731.3 -36.3469 23168.5
 12 06 2015  17 58  -21.5053 18659.4 -13731.5 -36.3494 23167.4
 12 06 2015  17 59  -21.5073 18657.3 -13732.0 -36.3533 23166.0
 12 06 2015  18 00  -21.5078 18655.7 -13732.5 -36.3568 23165.0
 12 06 2015  18 01  -21.5070 18655.6 -13732.9 -36.3576 23165.2
 12 06 2015  18 02  -21.5065 18656.5 -13732.9 -36.3565 23165.9
 12 06 2015  18 03  -21.5063 18657.0 -13732.9 -36.3557 23166.2
 12 06 2015  18 04  -21.5062 18657.4 -13732.8 -36.3549 23166.5
 12 06 2015  18 05  -21.5063 18657.2 -13732.8 -36.3552 23166.4
 12 06 2015  18 06  -21.5069 18656.8 -13732.9 -36.3560 23166.1
 12 06 2015  18 07  -21.5081 18656.0 -13733.1 -36.3575 23165.6
 12 06 2015  18 08  -21.5087 18655.8 -13733.2 -36.3580 23165.5
 12 06 2015  18 09  -21.5089 18655.7 -13733.3 -36.3583 23165.5
 12 06 2015  18 10  -21.5082 18656.6 -13733.3 -36.3571 23166.2
 12 06 2015  18 11  -21.5080 18657.3 -13733.3 -36.3561 23166.7
 12 06 2015  18 12  -21.5084 18657.4 -13733.3 -36.3558 23166.9
 12 06 2015  18 13  -21.5083 18657.7 -13733.3 -36.3555 23167.0
 12 06 2015  18 14  -21.5082 18658.0 -13733.2 -36.3548 23167.3
 12 06 2015  18 15  -21.5086 18658.1 -13733.1 -36.3545 23167.3
 12 06 2015  18 16  -21.5085 18658.4 -13733.2 -36.3541 23167.6
 12 06 2015  18 17  -21.5092 18658.6 -13733.1 -36.3537 23167.7
 12 06 2015  18 18  -21.5096 18658.5 -13733.1 -36.3539 23167.6
 12 06 2015  18 19  -21.5100 18658.4 -13733.1 -36.3541 23167.5
 12 06 2015  18 20  -21.5109 18658.1 -13733.1 -36.3546 23167.3
 12 06 2015  18 21  -21.5110 18658.0 -13733.2 -36.3548 23167.2
 12 06 2015  18 22  -21.5113 18658.4 -13733.3 -36.3544 23167.6
 12 06 2015  18 23  -21.5117 18658.6 -13733.3 -36.3540 23167.8
 12 06 2015  18 24  -21.5128 18658.6 -13733.2 -36.3540 23167.7
 12 06 2015  18 25  -21.5138 18658.3 -13733.2 -36.3544 23167.5
 12 06 2015  18 26  -21.5152 18657.5 -13733.3 -36.3558 23166.9
 12 06 2015  18 27  -21.5165 18656.4 -13733.4 -36.3575 23166.1
 12 06 2015  18 28  -21.5171 18656.0 -13733.5 -36.3584 23165.9
 12 06 2015  18 29  -21.5174 18656.2 -13733.6 -36.3582 23166.0
 12 06 2015  18 30  -21.5177 18656.7 -13733.4 -36.3572 23166.3
 12 06 2015  18 31  -21.5186 18657.2 -13733.3 -36.3562 23166.7
 12 06 2015  18 32  -21.5191 18657.4 -13733.3 -36.3558 23166.8
 12 06 2015  18 33  -21.5194 18657.4 -13733.2 -36.3557 23166.7
 12 06 2015  18 34  -21.5201 18657.3 -13733.0 -36.3554 23166.6
 12 06 2015  18 35  -21.5208 18657.2 -13732.8 -36.3552 23166.4
 12 06 2015  18 36  -21.5209 18657.3 -13732.7 -36.3547 23166.4
 12 06 2015  18 37  -21.5213 18657.3 -13732.4 -36.3543 23166.3
 12 06 2015  18 38  -21.5219 18657.5 -13732.2 -36.3537 23166.3
 12 06 2015  18 39  -21.5224 18657.6 -13732.1 -36.3532 23166.3
 12 06 2015  18 40  -21.5229 18657.3 -13732.0 -36.3534 23166.0
 12 06 2015  18 41  -21.5228 18657.3 -13731.9 -36.3532 23166.0
 12 06 2015  18 42  -21.5235 18657.0 -13731.9 -36.3536 23165.6
 12 06 2015  18 43  -21.5250 18656.4 -13731.9 -36.3546 23165.2
 12 06 2015  18 44  -21.5263 18655.8 -13731.9 -36.3556 23164.7
 12 06 2015  18 45  -21.5270 18655.2 -13732.0 -36.3565 23164.3
 12 06 2015  18 46  -21.5275 18654.9 -13732.1 -36.3572 23164.1
 12 06 2015  18 47  -21.5277 18654.9 -13732.2 -36.3572 23164.2
 12 06 2015  18 48  -21.5280 18654.7 -13732.2 -36.3576 23164.0
 12 06 2015  18 49  -21.5286 18654.7 -13732.2 -36.3577 23164.0
 12 06 2015  18 50  -21.5286 18655.1 -13732.2 -36.3570 23164.4
 12 06 2015  18 51  -21.5291 18655.4 -13732.2 -36.3567 23164.5
 12 06 2015  18 52  -21.5301 18654.7 -13732.4 -36.3580 23164.2
 12 06 2015  18 53  -21.5314 18653.9 -13732.6 -36.3596 23163.6
 12 06 2015  18 54  -21.5322 18653.4 -13732.8 -36.3609 23163.3
 12 06 2015  18 55  -21.5325 18653.2 -13733.1 -36.3616 23163.3
 12 06 2015  18 56  -21.5324 18653.5 -13733.1 -36.3613 23163.5
 12 06 2015  18 57  -21.5320 18653.9 -13733.2 -36.3609 23163.9
 12 06 2015  18 58  -21.5324 18653.4 -13733.4 -36.3619 23163.7
 12 06 2015  18 59  -21.5328 18653.4 -13733.6 -36.3625 23163.8
 12 06 2015  19 00  -21.5326 18653.8 -13733.8 -36.3621 23164.2
 12 06 2015  19 01  -21.5328 18653.9 -13733.8 -36.3621 23164.3
 12 06 2015  19 02  -21.5329 18653.7 -13734.0 -36.3626 23164.3
 12 06 2015  19 03  -21.5318 18654.8 -13734.0 -36.3610 23165.2
 12 06 2015  19 04  -21.5319 18656.0 -13733.8 -36.3590 23166.0
 12 06 2015  19 05  -21.5324 18656.3 -13733.7 -36.3582 23166.2
 12 06 2015  19 06  -21.5323 18656.2 -13733.8 -36.3585 23166.2
 12 06 2015  19 07  -21.5323 18656.5 -13733.8 -36.3581 23166.4
 12 06 2015  19 08  -21.5328 18656.9 -13733.8 -36.3577 23166.7
 12 06 2015  19 09  -21.5333 18656.9 -13733.9 -36.3578 23166.7
 12 06 2015  19 10  -21.5339 18656.8 -13734.0 -36.3582 23166.7
 12 06 2015  19 11  -21.5344 18656.8 -13734.1 -36.3583 23166.9
 12 06 2015  19 12  -21.5345 18657.1 -13734.2 -36.3581 23167.1
 12 06 2015  19 13  -21.5344 18657.5 -13734.2 -36.3576 23167.4
 12 06 2015  19 14  -21.5352 18657.4 -13734.2 -36.3578 23167.4
 12 06 2015  19 15  -21.5367 18656.8 -13734.4 -36.3590 23167.0
 12 06 2015  19 16  -21.5377 18656.2 -13734.6 -36.3603 23166.7
 12 06 2015  19 17  -21.5381 18656.1 -13734.8 -36.3608 23166.7
 12 06 2015  19 18  -21.5383 18656.2 -13735.0 -36.3610 23166.9
 12 06 2015  19 19  -21.5390 18656.3 -13735.1 -36.3612 23167.0
 12 06 2015  19 20  -21.5400 18656.2 -13735.3 -36.3616 23167.0
 12 06 2015  19 21  -21.5408 18655.9 -13735.5 -36.3623 23166.9
 12 06 2015  19 22  -21.5407 18656.3 -13735.7 -36.3622 23167.3
 12 06 2015  19 23  -21.5406 18656.8 -13735.8 -36.3617 23167.8
 12 06 2015  19 24  -21.5410 18657.1 -13735.9 -36.3614 23168.1
 12 06 2015  19 25  -21.5415 18657.3 -13735.9 -36.3613 23168.3
 12 06 2015  19 26  -21.5421 18657.1 -13736.0 -36.3618 23168.2
 12 06 2015  19 27  -21.5429 18656.7 -13736.3 -36.3629 23168.0
 12 06 2015  19 28  -21.5433 18656.5 -13736.4 -36.3634 23167.9
 12 06 2015  19 29  -21.5437 18656.5 -13736.6 -36.3638 23168.1
 12 06 2015  19 30  -21.5438 18656.8 -13736.7 -36.3635 23168.4
 12 06 2015  19 31  -21.5445 18656.9 -13736.8 -36.3636 23168.5
 12 06 2015  19 32  -21.5454 18656.5 -13736.9 -36.3644 23168.2
 12 06 2015  19 33  -21.5462 18656.1 -13737.2 -36.3655 23168.1
 12 06 2015  19 34  -21.5472 18655.7 -13737.3 -36.3662 23167.8
 12 06 2015  19 35  -21.5498 18653.6 -13737.5 -36.3699 23166.2
 12 06 2015  19 36  -21.5527 18651.2 -13738.1 -36.3745 23164.7
 12 06 2015  19 37  -21.5540 18650.6 -13738.6 -36.3764 23164.5
 12 06 2015  19 38  -21.5545 18650.5 -13738.8 -36.3770 23164.5
 12 06 2015  19 39  -21.5550 18650.3 -13739.0 -36.3776 23164.5
 12 06 2015  19 40  -21.5544 18650.6 -13739.1 -36.3775 23164.8
 12 06 2015  19 41  -21.5532 18651.5 -13739.3 -36.3764 23165.6
 12 06 2015  19 42  -21.5525 18652.0 -13739.2 -36.3757 23166.0
 12 06 2015  19 43  -21.5537 18651.2 -13739.3 -36.3769 23165.4
 12 06 2015  19 44  -21.5564 18650.3 -13739.4 -36.3786 23164.7
 12 06 2015  19 45  -21.5577 18649.1 -13739.7 -36.3808 23164.0
 12 06 2015  19 46  -21.5582 18648.4 -13740.0 -36.3824 23163.6
 12 06 2015  19 47  -21.5582 18647.9 -13740.3 -36.3838 23163.4
 12 06 2015  19 48  -21.5574 18648.1 -13740.4 -36.3836 23163.6
 12 06 2015  19 49  -21.5566 18648.6 -13740.6 -36.3833 23164.0
 12 06 2015  19 50  -21.5561 18649.2 -13740.5 -36.3823 23164.5
 12 06 2015  19 51  -21.5555 18649.9 -13740.5 -36.3811 23165.1
 12 06 2015  19 52  -21.5553 18650.4 -13740.5 -36.3804 23165.5
 12 06 2015  19 53  -21.5559 18650.1 -13740.5 -36.3809 23165.2
 12 06 2015  19 54  -21.5574 18649.0 -13740.7 -36.3829 23164.4
 12 06 2015  19 55  -21.5576 18648.4 -13740.9 -36.3841 23164.1
 12 06 2015  19 56  -21.5581 18648.0 -13741.1 -36.3851 23163.9
 12 06 2015  19 57  -21.5590 18647.7 -13741.2 -36.3859 23163.7
 12 06 2015  19 58  -21.5594 18648.0 -13741.3 -36.3855 23164.0
 12 06 2015  19 59  -21.5593 18648.6 -13741.3 -36.3848 23164.5
 12 06 2015  20 00  -21.5589 18649.1 -13741.3 -36.3839 23164.9
 12 06 2015  20 01  -21.5587 18649.9 -13741.2 -36.3827 23165.4
 12 06 2015  20 02  -21.5586 18650.6 -13741.1 -36.3814 23165.9
 12 06 2015  20 03  -21.5592 18650.6 -13741.0 -36.3811 23165.9
 12 06 2015  20 04  -21.5602 18650.2 -13741.0 -36.3817 23165.5
 12 06 2015  20 05  -21.5606 18650.1 -13741.0 -36.3818 23165.5
 12 06 2015  20 06  -21.5616 18649.8 -13741.0 -36.3824 23165.2
 12 06 2015  20 07  -21.5617 18649.8 -13741.1 -36.3825 23165.3
 12 06 2015  20 08  -21.5620 18649.7 -13741.0 -36.3826 23165.3
 12 06 2015  20 09  -21.5630 18649.2 -13741.0 -36.3834 23164.8
 12 06 2015  20 10  -21.5636 18648.9 -13741.1 -36.3839 23164.7
 12 06 2015  20 11  -21.5641 18648.6 -13741.3 -36.3848 23164.4
 12 06 2015  20 12  -21.5650 18648.0 -13741.3 -36.3856 23164.1
 12 06 2015  20 13  -21.5652 18648.2 -13741.5 -36.3857 23164.3
 12 06 2015  20 14  -21.5652 18648.4 -13741.5 -36.3854 23164.4
 12 06 2015  20 15  -21.5656 18648.3 -13741.4 -36.3855 23164.3
 12 06 2015  20 16  -21.5650 18648.7 -13741.5 -36.3850 23164.7
 12 06 2015  20 17  -21.5645 18649.5 -13741.4 -36.3835 23165.3
 12 06 2015  20 18  -21.5641 18650.2 -13741.2 -36.3822 23165.8
 12 06 2015  20 19  -21.5644 18650.6 -13741.1 -36.3814 23166.0
 12 06 2015  20 20  -21.5646 18650.3 -13741.1 -36.3818 23165.7
 12 06 2015  20 21  -21.5651 18649.6 -13741.2 -36.3829 23165.2
 12 06 2015  20 22  -21.5656 18649.4 -13741.2 -36.3834 23165.1
 12 06 2015  20 23  -21.5659 18649.2 -13741.4 -36.3840 23165.1
 12 06 2015  20 24  -21.5671 18648.4 -13741.4 -36.3853 23164.4
 12 06 2015  20 25  -21.5678 18647.6 -13741.6 -36.3868 23163.9
 12 06 2015  20 26  -21.5679 18647.4 -13741.8 -36.3875 23163.8
 12 06 2015  20 27  -21.5673 18647.9 -13741.8 -36.3868 23164.2
 12 06 2015  20 28  -21.5677 18647.8 -13741.8 -36.3870 23164.1
 12 06 2015  20 29  -21.5679 18647.5 -13741.9 -36.3874 23163.9
 12 06 2015  20 30  -21.5673 18647.6 -13741.9 -36.3875 23164.0
 12 06 2015  20 31  -21.5677 18647.2 -13742.0 -36.3881 23163.8
 12 06 2015  20 32  -21.5679 18646.7 -13742.1 -36.3891 23163.4
 12 06 2015  20 33  -21.5678 18646.5 -13742.2 -36.3896 23163.3
 12 06 2015  20 34  -21.5671 18646.9 -13742.2 -36.3891 23163.6
 12 06 2015  20 35  -21.5663 18647.3 -13742.2 -36.3884 23164.0
 12 06 2015  20 36  -21.5660 18647.7 -13742.3 -36.3880 23164.3
 12 06 2015  20 37  -21.5660 18648.0 -13742.1 -36.3872 23164.5
 12 06 2015  20 38  -21.5662 18648.1 -13742.1 -36.3870 23164.6
 12 06 2015  20 39  -21.5662 18648.3 -13742.1 -36.3868 23164.7
 12 06 2015  20 40  -21.5665 18648.3 -13742.1 -36.3867 23164.7
 12 06 2015  20 41  -21.5671 18648.3 -13742.0 -36.3867 23164.7
 12 06 2015  20 42  -21.5680 18648.1 -13742.0 -36.3868 23164.5
 12 06 2015  20 43  -21.5691 18647.9 -13742.0 -36.3872 23164.3
 12 06 2015  20 44  -21.5697 18647.8 -13742.1 -36.3874 23164.3
 12 06 2015  20 45  -21.5702 18647.4 -13742.1 -36.3881 23164.0
 12 06 2015  20 46  -21.5708 18646.9 -13742.1 -36.3889 23163.6
 12 06 2015  20 47  -21.5717 18645.8 -13742.3 -36.3908 23162.8
 12 06 2015  20 48  -21.5730 18644.1 -13742.5 -36.3938 23161.6
 12 06 2015  20 49  -21.5738 18643.0 -13742.8 -36.3960 23160.9
 12 06 2015  20 50  -21.5742 18642.3 -13743.0 -36.3974 23160.4
 12 06 2015  20 51  -21.5738 18642.4 -13743.1 -36.3975 23160.6
 12 06 2015  20 52  -21.5734 18642.4 -13743.1 -36.3975 23160.6
 12 06 2015  20 53  -21.5736 18642.2 -13743.2 -36.3979 23160.5
 12 06 2015  20 54  -21.5730 18642.6 -13743.2 -36.3974 23160.8
 12 06 2015  20 55  -21.5726 18643.3 -13743.1 -36.3960 23161.2
 12 06 2015  20 56  -21.5723 18643.6 -13743.0 -36.3954 23161.4
 12 06 2015  20 57  -21.5719 18643.8 -13742.9 -36.3949 23161.6
 12 06 2015  20 58  -21.5725 18643.4 -13742.8 -36.3954 23161.2
 12 06 2015  20 59  -21.5727 18643.2 -13742.9 -36.3959 23161.1
 12 06 2015  21 00  -21.5726 18643.0 -13743.0 -36.3963 23161.0
 12 06 2015  21 01  -21.5726 18642.8 -13742.9 -36.3965 23160.8
 12 06 2015  21 02  -21.5730 18642.3 -13743.0 -36.3974 23160.5
 12 06 2015  21 03  -21.5734 18641.8 -13743.1 -36.3983 23160.1
 12 06 2015  21 04  -21.5734 18641.5 -13743.3 -36.3991 23160.0
 12 06 2015  21 05  -21.5738 18641.2 -13743.4 -36.3997 23159.7
 12 06 2015  21 06  -21.5744 18640.8 -13743.4 -36.4005 23159.5
 12 06 2015  21 07  -21.5746 18640.6 -13743.5 -36.4008 23159.4
 12 06 2015  21 08  -21.5747 18640.5 -13743.5 -36.4011 23159.3
 12 06 2015  21 09  -21.5749 18640.3 -13743.5 -36.4013 23159.2
 12 06 2015  21 10  -21.5750 18640.3 -13743.6 -36.4015 23159.1
 12 06 2015  21 11  -21.5743 18640.4 -13743.6 -36.4013 23159.3
 12 06 2015  21 12  -21.5736 18640.5 -13743.6 -36.4011 23159.4
 12 06 2015  21 13  -21.5729 18640.5 -13743.6 -36.4012 23159.3
 12 06 2015  21 14  -21.5724 18640.1 -13743.7 -36.4018 23159.1
 12 06 2015  21 15  -21.5723 18639.7 -13743.8 -36.4027 23158.8
 12 06 2015  21 16  -21.5723 18639.4 -13743.9 -36.4034 23158.6
 12 06 2015  21 17  -21.5723 18639.2 -13744.0 -36.4038 23158.5
 12 06 2015  21 18  -21.5718 18639.0 -13744.0 -36.4041 23158.4
 12 06 2015  21 19  -21.5716 18638.7 -13744.1 -36.4049 23158.2
 12 06 2015  21 20  -21.5717 18638.5 -13744.2 -36.4053 23158.1
 12 06 2015  21 21  -21.5723 18638.3 -13744.2 -36.4056 23157.9
 12 06 2015  21 22  -21.5729 18638.2 -13744.2 -36.4057 23157.8
 12 06 2015  21 23  -21.5731 18638.1 -13744.2 -36.4059 23157.8
 12 06 2015  21 24  -21.5729 18638.2 -13744.2 -36.4059 23157.9
 12 06 2015  21 25  -21.5725 18638.5 -13744.3 -36.4054 23158.1
 12 06 2015  21 26  -21.5721 18638.9 -13744.2 -36.4047 23158.4
 12 06 2015  21 27  -21.5722 18639.2 -13744.1 -36.4040 23158.6
 12 06 2015  21 28  -21.5728 18639.4 -13744.0 -36.4036 23158.7
 12 06 2015  21 29  -21.5731 18639.3 -13744.0 -36.4037 23158.6
 12 06 2015  21 30  -21.5737 18639.2 -13743.9 -36.4037 23158.4
 12 06 2015  21 31  -21.5740 18639.0 -13743.9 -36.4040 23158.3
 12 06 2015  21 32  -21.5743 18638.9 -13743.9 -36.4042 23158.2
 12 06 2015  21 33  -21.5752 18638.8 -13743.9 -36.4043 23158.1
 12 06 2015  21 34  -21.5752 18638.9 -13743.9 -36.4042 23158.3
 12 06 2015  21 35  -21.5745 18638.8 -13743.9 -36.4043 23158.2
 12 06 2015  21 36  -21.5749 18638.5 -13744.0 -36.4049 23158.0
 12 06 2015  21 37  -21.5745 18638.2 -13744.1 -36.4055 23157.8
 12 06 2015  21 38  -21.5748 18638.1 -13744.1 -36.4057 23157.7
 12 06 2015  21 39  -21.5744 18637.9 -13744.2 -36.4062 23157.6
 12 06 2015  21 40  -21.5745 18637.9 -13744.1 -36.4060 23157.6
 12 06 2015  21 41  -21.5730 18638.7 -13744.1 -36.4049 23158.2
 12 06 2015  21 42  -21.5721 18639.0 -13744.0 -36.4042 23158.4
 12 06 2015  21 43  -21.5722 18638.9 -13744.0 -36.4042 23158.3
 12 06 2015  21 44  -21.5725 18638.6 -13744.0 -36.4047 23158.0
 12 06 2015  21 45  -21.5740 18638.0 -13744.0 -36.4057 23157.6
 12 06 2015  21 46  -21.5747 18637.7 -13744.0 -36.4062 23157.3
 12 06 2015  21 47  -21.5756 18637.5 -13744.1 -36.4066 23157.2
 12 06 2015  21 48  -21.5751 18637.8 -13744.1 -36.4060 23157.5
 12 06 2015  21 49  -21.5728 18638.7 -13744.0 -36.4047 23158.1
 12 06 2015  21 50  -21.5713 18639.1 -13743.9 -36.4039 23158.4
 12 06 2015  21 51  -21.5712 18639.3 -13743.9 -36.4035 23158.5
 12 06 2015  21 52  -21.5718 18639.1 -13743.8 -36.4037 23158.3
 12 06 2015  21 53  -21.5721 18638.9 -13743.8 -36.4041 23158.2
 12 06 2015  21 54  -21.5724 18638.6 -13743.9 -36.4045 23158.0
 12 06 2015  21 55  -21.5728 18638.4 -13743.9 -36.4049 23157.8
 12 06 2015  21 56  -21.5732 18638.0 -13744.0 -36.4056 23157.5
 12 06 2015  21 57  -21.5738 18637.5 -13744.1 -36.4065 23157.2
 12 06 2015  21 58  -21.5741 18637.1 -13744.1 -36.4072 23156.9
 12 06 2015  21 59  -21.5737 18636.9 -13744.2 -36.4077 23156.8
 12 06 2015  22 00  -21.5732 18637.0 -13744.3 -36.4076 23156.9
 12 06 2015  22 01  -21.5724 18637.2 -13744.3 -36.4074 23157.1
 12 06 2015  22 02  -21.5719 18637.3 -13744.3 -36.4074 23157.1
 12 06 2015  22 03  -21.5721 18637.0 -13744.3 -36.4077 23157.0
 12 06 2015  22 04  -21.5723 18637.1 -13744.4 -36.4078 23157.0
 12 06 2015  22 05  -21.5723 18637.3 -13744.4 -36.4074 23157.2
 12 06 2015  22 06  -21.5721 18637.6 -13744.3 -36.4069 23157.4
 12 06 2015  22 07  -21.5720 18637.7 -13744.3 -36.4066 23157.5
 12 06 2015  22 08  -21.5716 18638.0 -13744.2 -36.4061 23157.7
 12 06 2015  22 09  -21.5710 18638.2 -13744.2 -36.4057 23157.9
 12 06 2015  22 10  -21.5707 18638.2 -13744.2 -36.4059 23157.8
 12 06 2015  22 11  -21.5713 18637.7 -13744.3 -36.4068 23157.5
 12 06 2015  22 12  -21.5714 18637.5 -13744.4 -36.4072 23157.4
 12 06 2015  22 13  -21.5720 18637.2 -13744.5 -36.4078 23157.2
 12 06 2015  22 14  -21.5725 18637.0 -13744.5 -36.4081 23157.1
 12 06 2015  22 15  -21.5728 18636.8 -13744.6 -36.4086 23157.0
 12 06 2015  22 16  -21.5734 18636.7 -13744.7 -36.4089 23156.9
 12 06 2015  22 17  -21.5735 18636.9 -13744.7 -36.4087 23157.0
 12 06 2015  22 18  -21.5739 18637.0 -13744.6 -36.4084 23157.1
 12 06 2015  22 19  -21.5740 18637.1 -13744.6 -36.4082 23157.2
 12 06 2015  22 20  -21.5737 18637.3 -13744.6 -36.4078 23157.4
 12 06 2015  22 21  -21.5731 18637.5 -13744.6 -36.4074 23157.5
 12 06 2015  22 22  -21.5728 18637.6 -13744.5 -36.4073 23157.6
 12 06 2015  22 23  -21.5724 18637.7 -13744.6 -36.4073 23157.7
 12 06 2015  22 24  -21.5722 18637.5 -13744.6 -36.4076 23157.5
 12 06 2015  22 25  -21.5723 18637.2 -13744.6 -36.4081 23157.3
 12 06 2015  22 26  -21.5721 18637.2 -13744.7 -36.4082 23157.3
 12 06 2015  22 27  -21.5722 18637.2 -13744.7 -36.4082 23157.3
 12 06 2015  22 28  -21.5720 18637.3 -13744.6 -36.4080 23157.4
 12 06 2015  22 29  -21.5720 18637.3 -13744.7 -36.4080 23157.4
 12 06 2015  22 30  -21.5722 18637.1 -13744.6 -36.4083 23157.2
 12 06 2015  22 31  -21.5722 18637.0 -13744.6 -36.4084 23157.1
 12 06 2015  22 32  -21.5720 18636.9 -13744.7 -36.4087 23157.0
 12 06 2015  22 33  -21.5717 18636.7 -13744.7 -36.4089 23157.0
 12 06 2015  22 34  -21.5716 18636.6 -13744.7 -36.4090 23156.8
 12 06 2015  22 35  -21.5715 18636.5 -13744.7 -36.4093 23156.8
 12 06 2015  22 36  -21.5718 18636.3 -13744.8 -36.4096 23156.7
 12 06 2015  22 37  -21.5721 18636.3 -13744.8 -36.4096 23156.7
 12 06 2015  22 38  -21.5723 18636.3 -13744.7 -36.4096 23156.7
 12 06 2015  22 39  -21.5723 18636.8 -13744.7 -36.4086 23157.0
 12 06 2015  22 40  -21.5726 18637.1 -13744.6 -36.4081 23157.1
 12 06 2015  22 41  -21.5730 18637.2 -13744.4 -36.4077 23157.2
 12 06 2015  22 42  -21.5726 18637.3 -13744.4 -36.4075 23157.3
 12 06 2015  22 43  -21.5718 18637.5 -13744.4 -36.4071 23157.4
 12 06 2015  22 44  -21.5711 18637.7 -13744.4 -36.4068 23157.6
 12 06 2015  22 45  -21.5707 18637.8 -13744.3 -36.4065 23157.6
 12 06 2015  22 46  -21.5706 18637.8 -13744.3 -36.4066 23157.5
 12 06 2015  22 47  -21.5710 18637.5 -13744.3 -36.4070 23157.3
 12 06 2015  22 48  -21.5712 18637.2 -13744.3 -36.4073 23157.1
 12 06 2015  22 49  -21.5712 18637.1 -13744.3 -36.4075 23157.0
 12 06 2015  22 50  -21.5711 18637.0 -13744.3 -36.4077 23157.0
 12 06 2015  22 51  -21.5710 18636.9 -13744.3 -36.4079 23156.8
 12 06 2015  22 52  -21.5713 18636.9 -13744.3 -36.4079 23156.8
 12 06 2015  22 53  -21.5712 18636.9 -13744.2 -36.4077 23156.8
 12 06 2015  22 54  -21.5711 18637.2 -13744.1 -36.4071 23157.0
 12 06 2015  22 55  -21.5708 18637.5 -13744.1 -36.4065 23157.2
 12 06 2015  22 56  -21.5705 18637.6 -13744.0 -36.4061 23157.2
 12 06 2015  22 57  -21.5702 18637.7 -13743.9 -36.4059 23157.3
 12 06 2015  22 58  -21.5698 18637.9 -13743.9 -36.4056 23157.4
 12 06 2015  22 59  -21.5695 18638.1 -13743.8 -36.4052 23157.5
 12 06 2015  23 00  -21.5694 18638.3 -13743.8 -36.4049 23157.7
 12 06 2015  23 01  -21.5689 18638.4 -13743.8 -36.4045 23157.7
 12 06 2015  23 02  -21.5685 18638.5 -13743.8 -36.4045 23157.8
 12 06 2015  23 03  -21.5680 18638.5 -13743.7 -36.4044 23157.8
 12 06 2015  23 04  -21.5679 18638.3 -13743.8 -36.4047 23157.7
 12 06 2015  23 05  -21.5678 18638.3 -13743.8 -36.4048 23157.7
 12 06 2015  23 06  -21.5676 18638.4 -13743.7 -36.4046 23157.7
 12 06 2015  23 07  -21.5676 18638.3 -13743.8 -36.4047 23157.7
 12 06 2015  23 08  -21.5676 18638.4 -13743.8 -36.4046 23157.7
 12 06 2015  23 09  -21.5674 18638.4 -13743.8 -36.4046 23157.8
 12 06 2015  23 10  -21.5669 18638.5 -13743.8 -36.4046 23157.8
 12 06 2015  23 11  -21.5666 18638.4 -13743.8 -36.4048 23157.7
 12 06 2015  23 12  -21.5666 18638.1 -13743.9 -36.4052 23157.6
 12 06 2015  23 13  -21.5668 18637.7 -13743.9 -36.4059 23157.2
 12 06 2015  23 14  -21.5680 18636.5 -13744.1 -36.4080 23156.4
 12 06 2015  23 15  -21.5691 18635.5 -13744.2 -36.4097 23155.7
 12 06 2015  23 16  -21.5703 18635.0 -13744.4 -36.4110 23155.4
 12 06 2015  23 17  -21.5704 18634.9 -13744.6 -36.4113 23155.4
 12 06 2015  23 18  -21.5705 18634.8 -13744.6 -36.4115 23155.3
 12 06 2015  23 19  -21.5700 18634.8 -13744.6 -36.4115 23155.3
 12 06 2015  23 20  -21.5698 18634.8 -13744.6 -36.4115 23155.3
 12 06 2015  23 21  -21.5699 18634.9 -13744.5 -36.4113 23155.4
 12 06 2015  23 22  -21.5705 18634.7 -13744.6 -36.4117 23155.2
 12 06 2015  23 23  -21.5714 18634.4 -13744.5 -36.4119 23155.0
 12 06 2015  23 24  -21.5721 18634.2 -13744.6 -36.4124 23154.8
 12 06 2015  23 25  -21.5725 18634.0 -13744.6 -36.4127 23154.7
 12 06 2015  23 26  -21.5725 18633.9 -13744.6 -36.4129 23154.6
 12 06 2015  23 27  -21.5725 18633.7 -13744.7 -36.4134 23154.5
 12 06 2015  23 28  -21.5727 18633.5 -13744.6 -36.4134 23154.3
 12 06 2015  23 29  -21.5735 18633.4 -13744.6 -36.4137 23154.2
 12 06 2015  23 30  -21.5737 18633.4 -13744.6 -36.4136 23154.2
 12 06 2015  23 31  -21.5737 18633.5 -13744.6 -36.4135 23154.3
 12 06 2015  23 32  -21.5736 18633.6 -13744.5 -36.4132 23154.3
 12 06 2015  23 33  -21.5734 18633.6 -13744.5 -36.4130 23154.4
 12 06 2015  23 34  -21.5740 18633.5 -13744.4 -36.4131 23154.2
 12 06 2015  23 35  -21.5745 18633.3 -13744.4 -36.4135 23154.0
 12 06 2015  23 36  -21.5750 18633.1 -13744.4 -36.4137 23153.9
 12 06 2015  23 37  -21.5750 18633.1 -13744.4 -36.4136 23153.9
 12 06 2015  23 38  -21.5744 18633.3 -13744.4 -36.4133 23154.0
 12 06 2015  23 39  -21.5740 18633.4 -13744.4 -36.4133 23154.1
 12 06 2015  23 40  -21.5736 18633.4 -13744.4 -36.4132 23154.0
 12 06 2015  23 41  -21.5735 18633.2 -13744.4 -36.4134 23153.9
 12 06 2015  23 42  -21.5738 18633.0 -13744.4 -36.4138 23153.8
 12 06 2015  23 43  -21.5743 18632.8 -13744.5 -36.4142 23153.6
 12 06 2015  23 44  -21.5751 18632.4 -13744.4 -36.4148 23153.3
 12 06 2015  23 45  -21.5754 18632.1 -13744.5 -36.4154 23153.1
 12 06 2015  23 46  -21.5753 18631.9 -13744.6 -36.4158 23153.0
 12 06 2015  23 47  -21.5751 18631.8 -13744.6 -36.4161 23152.9
 12 06 2015  23 48  -21.5754 18631.5 -13744.7 -36.4166 23152.7
 12 06 2015  23 49  -21.5757 18631.3 -13744.7 -36.4170 23152.6
 12 06 2015  23 50  -21.5759 18631.2 -13744.8 -36.4171 23152.5
 12 06 2015  23 51  -21.5757 18631.3 -13744.7 -36.4170 23152.6
 12 06 2015  23 52  -21.5753 18631.2 -13744.7 -36.4171 23152.6
 12 06 2015  23 53  -21.5748 18631.3 -13744.8 -36.4171 23152.6
 12 06 2015  23 54  -21.5746 18631.3 -13744.7 -36.4170 23152.6
 12 06 2015  23 55  -21.5748 18631.3 -13744.7 -36.4170 23152.6
 12 06 2015  23 56  -21.5753 18631.0 -13744.7 -36.4174 23152.3
 12 06 2015  23 57  -21.5758 18630.7 -13744.8 -36.4180 23152.2
 12 06 2015  23 58  -21.5757 18630.7 -13744.8 -36.4181 23152.1
