CACHOEIRA PAULISTA EMBRACE-05 <173> 1 Min. Reported data

 DD MM YYYY  HH MM   D(Deg)  H(nT)   Z(nT)   I(Deg)   F(nT)

 22 06 2015  00 00  -21.5645 18644.7 -13745.3 -36.3984 23163.8
 22 06 2015  00 01  -21.5642 18644.9 -13745.3 -36.3982 23163.8
 22 06 2015  00 02  -21.5638 18644.9 -13745.3 -36.3980 23163.9
 22 06 2015  00 03  -21.5635 18645.1 -13745.2 -36.3975 23164.0
 22 06 2015  00 04  -21.5629 18645.1 -13745.2 -36.3976 23164.0
 22 06 2015  00 05  -21.5631 18645.1 -13745.2 -36.3976 23164.0
 22 06 2015  00 06  -21.5631 18645.1 -13745.2 -36.3976 23164.0
 22 06 2015  00 07  -21.5628 18645.2 -13745.2 -36.3974 23164.1
 22 06 2015  00 08  -21.5624 18645.2 -13745.2 -36.3974 23164.1
 22 06 2015  00 09  -21.5619 18645.3 -13745.2 -36.3973 23164.1
 22 06 2015  00 10  -21.5619 18645.3 -13745.2 -36.3972 23164.2
 22 06 2015  00 11  -21.5619 18645.3 -13745.2 -36.3972 23164.1
 22 06 2015  00 12  -21.5618 18645.3 -13745.2 -36.3973 23164.2
 22 06 2015  00 13  -21.5622 18645.4 -13745.2 -36.3972 23164.2
 22 06 2015  00 14  -21.5621 18645.4 -13745.2 -36.3971 23164.2
 22 06 2015  00 15  -21.5621 18645.6 -13745.1 -36.3968 23164.3
 22 06 2015  00 16  -21.5619 18645.7 -13745.1 -36.3966 23164.4
 22 06 2015  00 17  -21.5617 18645.8 -13745.1 -36.3964 23164.5
 22 06 2015  00 18  -21.5618 18645.7 -13745.2 -36.3966 23164.5
 22 06 2015  00 19  -21.5618 18645.8 -13745.2 -36.3965 23164.5
 22 06 2015  00 20  -21.5613 18645.8 -13745.2 -36.3965 23164.5
 22 06 2015  00 21  -21.5615 18645.7 -13745.2 -36.3967 23164.4
 22 06 2015  00 22  -21.5620 18645.4 -13745.2 -36.3972 23164.2
 22 06 2015  00 23  -21.5625 18645.1 -13745.3 -36.3978 23164.0
 22 06 2015  00 24  -21.5628 18644.8 -13745.3 -36.3982 23163.8
 22 06 2015  00 25  -21.5635 18644.8 -13745.3 -36.3982 23163.8
 22 06 2015  00 26  -21.5633 18644.8 -13745.3 -36.3984 23163.8
 22 06 2015  00 27  -21.5627 18644.8 -13745.4 -36.3984 23163.8
 22 06 2015  00 28  -21.5621 18644.9 -13745.4 -36.3982 23164.0
 22 06 2015  00 29  -21.5613 18645.0 -13745.4 -36.3982 23164.0
 22 06 2015  00 30  -21.5607 18644.9 -13745.5 -36.3985 23164.0
 22 06 2015  00 31  -21.5606 18644.7 -13745.5 -36.3988 23163.8
 22 06 2015  00 32  -21.5605 18644.7 -13745.5 -36.3989 23163.8
 22 06 2015  00 33  -21.5606 18644.8 -13745.5 -36.3988 23163.9
 22 06 2015  00 34  -21.5606 18644.8 -13745.5 -36.3987 23164.0
 22 06 2015  00 35  -21.5607 18644.8 -13745.5 -36.3987 23164.0
 22 06 2015  00 36  -21.5610 18644.8 -13745.5 -36.3987 23164.0
 22 06 2015  00 37  -21.5615 18644.6 -13745.5 -36.3990 23163.8
 22 06 2015  00 38  -21.5618 18644.5 -13745.6 -36.3992 23163.8
 22 06 2015  00 39  -21.5619 18644.5 -13745.6 -36.3994 23163.7
 22 06 2015  00 40  -21.5621 18644.5 -13745.6 -36.3994 23163.7
 22 06 2015  00 41  -21.5625 18644.2 -13745.6 -36.3998 23163.5
 22 06 2015  00 42  -21.5632 18643.7 -13745.7 -36.4006 23163.2
 22 06 2015  00 43  -21.5637 18643.4 -13745.8 -36.4013 23163.0
 22 06 2015  00 44  -21.5640 18643.2 -13745.8 -36.4018 23162.8
 22 06 2015  00 45  -21.5643 18642.9 -13745.9 -36.4023 23162.6
 22 06 2015  00 46  -21.5649 18642.6 -13745.9 -36.4027 23162.4
 22 06 2015  00 47  -21.5656 18642.5 -13745.9 -36.4029 23162.3
 22 06 2015  00 48  -21.5662 18642.5 -13745.9 -36.4029 23162.3
 22 06 2015  00 49  -21.5663 18642.5 -13745.9 -36.4028 23162.4
 22 06 2015  00 50  -21.5660 18642.5 -13745.9 -36.4029 23162.3
 22 06 2015  00 51  -21.5657 18642.6 -13745.9 -36.4027 23162.3
 22 06 2015  00 52  -21.5652 18642.7 -13745.9 -36.4025 23162.4
 22 06 2015  00 53  -21.5648 18642.6 -13745.9 -36.4026 23162.4
 22 06 2015  00 54  -21.5643 18642.6 -13745.9 -36.4028 23162.4
 22 06 2015  00 55  -21.5637 18642.5 -13745.9 -36.4029 23162.3
 22 06 2015  00 56  -21.5635 18642.2 -13746.0 -36.4034 23162.1
 22 06 2015  00 57  -21.5640 18641.9 -13746.0 -36.4039 23161.9
 22 06 2015  00 58  -21.5646 18641.7 -13746.1 -36.4043 23161.7
 22 06 2015  00 59  -21.5651 18641.4 -13746.1 -36.4048 23161.6
 22 06 2015  01 00  -21.5656 18641.4 -13746.1 -36.4048 23161.5
 22 06 2015  01 01  -21.5656 18641.3 -13746.1 -36.4050 23161.4
 22 06 2015  01 02  -21.5652 18641.2 -13746.1 -36.4051 23161.4
 22 06 2015  01 03  -21.5652 18641.2 -13746.1 -36.4050 23161.4
 22 06 2015  01 04  -21.5652 18641.4 -13746.0 -36.4047 23161.5
 22 06 2015  01 05  -21.5648 18641.5 -13746.0 -36.4045 23161.6
 22 06 2015  01 06  -21.5641 18641.7 -13746.0 -36.4043 23161.7
 22 06 2015  01 07  -21.5635 18641.7 -13746.0 -36.4042 23161.7
 22 06 2015  01 08  -21.5628 18641.9 -13746.0 -36.4040 23161.9
 22 06 2015  01 09  -21.5627 18641.9 -13746.0 -36.4040 23161.9
 22 06 2015  01 10  -21.5630 18641.9 -13745.9 -36.4038 23161.8
 22 06 2015  01 11  -21.5634 18641.7 -13746.0 -36.4042 23161.7
 22 06 2015  01 12  -21.5636 18641.5 -13746.0 -36.4044 23161.5
 22 06 2015  01 13  -21.5636 18641.4 -13746.0 -36.4046 23161.5
 22 06 2015  01 14  -21.5635 18641.3 -13746.0 -36.4048 23161.4
 22 06 2015  01 15  -21.5635 18641.1 -13746.1 -36.4052 23161.3
 22 06 2015  01 16  -21.5638 18641.0 -13746.1 -36.4054 23161.2
 22 06 2015  01 17  -21.5643 18640.8 -13746.1 -36.4058 23161.1
 22 06 2015  01 18  -21.5645 18640.7 -13746.1 -36.4059 23161.0
 22 06 2015  01 19  -21.5647 18640.6 -13746.2 -36.4061 23160.9
 22 06 2015  01 20  -21.5647 18640.5 -13746.1 -36.4062 23160.9
 22 06 2015  01 21  -21.5647 18640.6 -13746.1 -36.4060 23161.0
 22 06 2015  01 22  -21.5648 18640.7 -13746.1 -36.4059 23160.9
 22 06 2015  01 23  -21.5648 18640.7 -13746.0 -36.4057 23160.9
 22 06 2015  01 24  -21.5648 18640.7 -13746.0 -36.4057 23160.9
 22 06 2015  01 25  -21.5649 18640.7 -13746.0 -36.4056 23160.9
 22 06 2015  01 26  -21.5651 18640.6 -13746.0 -36.4058 23160.9
 22 06 2015  01 27  -21.5651 18640.6 -13746.0 -36.4058 23160.8
 22 06 2015  01 28  -21.5650 18640.4 -13746.0 -36.4061 23160.7
 22 06 2015  01 29  -21.5649 18640.4 -13746.0 -36.4062 23160.7
 22 06 2015  01 30  -21.5646 18640.4 -13746.1 -36.4063 23160.7
 22 06 2015  01 31  -21.5643 18640.4 -13746.1 -36.4063 23160.7
 22 06 2015  01 32  -21.5642 18640.2 -13746.1 -36.4066 23160.6
 22 06 2015  01 33  -21.5642 18640.1 -13746.1 -36.4068 23160.5
 22 06 2015  01 34  -21.5640 18640.2 -13746.1 -36.4067 23160.6
 22 06 2015  01 35  -21.5638 18640.2 -13746.2 -36.4067 23160.6
 22 06 2015  01 36  -21.5637 18640.2 -13746.2 -36.4068 23160.6
 22 06 2015  01 37  -21.5634 18640.3 -13746.2 -36.4067 23160.7
 22 06 2015  01 38  -21.5632 18640.4 -13746.2 -36.4065 23160.8
 22 06 2015  01 39  -21.5631 18640.5 -13746.1 -36.4062 23160.8
 22 06 2015  01 40  -21.5632 18640.5 -13746.1 -36.4062 23160.8
 22 06 2015  01 41  -21.5630 18640.5 -13746.0 -36.4060 23160.8
 22 06 2015  01 42  -21.5628 18640.6 -13746.0 -36.4059 23160.8
 22 06 2015  01 43  -21.5629 18640.6 -13746.0 -36.4058 23160.8
 22 06 2015  01 44  -21.5627 18640.7 -13745.9 -36.4056 23160.9
 22 06 2015  01 45  -21.5626 18640.8 -13745.9 -36.4055 23160.9
 22 06 2015  01 46  -21.5626 18640.7 -13745.9 -36.4055 23160.9
 22 06 2015  01 47  -21.5627 18640.6 -13745.9 -36.4057 23160.8
 22 06 2015  01 48  -21.5624 18640.7 -13745.9 -36.4056 23160.9
 22 06 2015  01 49  -21.5620 18640.7 -13746.0 -36.4056 23160.9
 22 06 2015  01 50  -21.5619 18640.6 -13746.0 -36.4058 23160.8
 22 06 2015  01 51  -21.5619 18640.7 -13746.0 -36.4057 23160.9
 22 06 2015  01 52  -21.5620 18640.7 -13746.0 -36.4056 23160.9
 22 06 2015  01 53  -21.5622 18640.7 -13746.0 -36.4056 23160.9
 22 06 2015  01 54  -21.5625 18640.6 -13746.0 -36.4058 23160.8
 22 06 2015  01 55  -21.5624 18640.8 -13746.0 -36.4055 23161.0
 22 06 2015  01 56  -21.5629 18640.4 -13745.9 -36.4060 23160.6
 22 06 2015  01 57  -21.5628 18640.5 -13746.0 -36.4059 23160.7
 22 06 2015  01 58  -21.5623 18640.9 -13745.9 -36.4052 23161.0
 22 06 2015  01 59  -21.5628 18640.5 -13745.9 -36.4057 23160.7
 22 06 2015  02 00  -21.5630 18640.6 -13745.9 -36.4057 23160.8
 22 06 2015  02 01  -21.5618 18641.5 -13745.8 -36.4041 23161.5
 22 06 2015  02 02  -21.5623 18640.8 -13745.7 -36.4050 23160.9
 22 06 2015  02 03  -21.5632 18640.2 -13745.9 -36.4062 23160.4
 22 06 2015  02 04  -21.5621 18641.0 -13745.9 -36.4050 23161.1
 22 06 2015  02 05  -21.5616 18641.2 -13745.8 -36.4045 23161.2
 22 06 2015  02 06  -21.5629 18640.3 -13745.8 -36.4058 23160.5
 22 06 2015  02 07  -21.5630 18640.5 -13745.8 -36.4056 23160.7
 22 06 2015  02 08  -21.5623 18641.0 -13745.8 -36.4048 23161.0
 22 06 2015  02 09  -21.5626 18640.7 -13745.8 -36.4053 23160.8
 22 06 2015  02 10  -21.5627 18640.6 -13745.8 -36.4054 23160.7
 22 06 2015  02 11  -21.5623 18640.9 -13745.8 -36.4050 23160.9
 22 06 2015  02 12  -21.5624 18640.7 -13745.8 -36.4052 23160.8
 22 06 2015  02 13  -21.5621 18640.8 -13745.8 -36.4052 23160.8
 22 06 2015  02 14  -21.5617 18640.9 -13745.8 -36.4049 23161.0
 22 06 2015  02 15  -21.5616 18640.8 -13745.8 -36.4051 23160.8
 22 06 2015  02 16  -21.5611 18641.0 -13745.8 -36.4048 23161.0
 22 06 2015  02 17  -21.5609 18641.2 -13745.7 -36.4044 23161.1
 22 06 2015  02 18  -21.5610 18640.9 -13745.7 -36.4048 23160.9
 22 06 2015  02 19  -21.5610 18641.0 -13745.7 -36.4048 23161.0
 22 06 2015  02 20  -21.5608 18641.2 -13745.7 -36.4043 23161.1
 22 06 2015  02 21  -21.5610 18641.0 -13745.7 -36.4047 23161.0
 22 06 2015  02 22  -21.5614 18640.8 -13745.6 -36.4048 23160.8
 22 06 2015  02 23  -21.5614 18641.0 -13745.7 -36.4045 23161.0
 22 06 2015  02 24  -21.5618 18640.8 -13745.6 -36.4047 23160.8
 22 06 2015  02 25  -21.5620 18640.8 -13745.7 -36.4049 23160.8
 22 06 2015  02 26  -21.5619 18640.9 -13745.7 -36.4047 23160.9
 22 06 2015  02 27  -21.5618 18640.8 -13745.7 -36.4049 23160.8
 22 06 2015  02 28  -21.5618 18640.8 -13745.7 -36.4051 23160.8
 22 06 2015  02 29  -21.5617 18640.8 -13745.7 -36.4050 23160.8
 22 06 2015  02 30  -21.5618 18640.7 -13745.8 -36.4052 23160.8
 22 06 2015  02 31  -21.5618 18640.7 -13745.8 -36.4053 23160.8
 22 06 2015  02 32  -21.5618 18640.6 -13745.8 -36.4055 23160.7
 22 06 2015  02 33  -21.5617 18640.6 -13745.8 -36.4056 23160.7
 22 06 2015  02 34  -21.5617 18640.6 -13745.8 -36.4055 23160.7
 22 06 2015  02 35  -21.5617 18640.6 -13745.8 -36.4055 23160.8
 22 06 2015  02 36  -21.5617 18640.7 -13745.8 -36.4053 23160.8
 22 06 2015  02 37  -21.5616 18640.8 -13745.8 -36.4051 23160.8
 22 06 2015  02 38  -21.5614 18640.8 -13745.8 -36.4051 23160.9
 22 06 2015  02 39  -21.5612 18640.8 -13745.8 -36.4051 23160.9
 22 06 2015  02 40  -21.5611 18640.8 -13745.8 -36.4051 23160.9
 22 06 2015  02 41  -21.5611 18640.7 -13745.8 -36.4052 23160.8
 22 06 2015  02 42  -21.5611 18640.7 -13745.8 -36.4053 23160.8
 22 06 2015  02 43  -21.5612 18640.7 -13745.7 -36.4052 23160.7
 22 06 2015  02 44  -21.5615 18640.6 -13745.7 -36.4052 23160.7
 22 06 2015  02 45  -21.5617 18640.6 -13745.7 -36.4051 23160.7
 22 06 2015  02 46  -21.5616 18640.7 -13745.7 -36.4051 23160.7
 22 06 2015  02 47  -21.5615 18640.7 -13745.7 -36.4051 23160.7
 22 06 2015  02 48  -21.5617 18640.6 -13745.7 -36.4053 23160.7
 22 06 2015  02 49  -21.5619 18640.6 -13745.7 -36.4053 23160.7
 22 06 2015  02 50  -21.5619 18640.7 -13745.7 -36.4051 23160.8
 22 06 2015  02 51  -21.5623 18640.5 -13745.7 -36.4054 23160.6
 22 06 2015  02 52  -21.5627 18640.5 -13745.7 -36.4055 23160.6
 22 06 2015  02 53  -21.5624 18640.6 -13745.7 -36.4052 23160.7
 22 06 2015  02 54  -21.5616 18640.8 -13745.7 -36.4049 23160.8
 22 06 2015  02 55  -21.5611 18640.9 -13745.7 -36.4047 23160.9
 22 06 2015  02 56  -21.5608 18640.9 -13745.7 -36.4047 23160.9
 22 06 2015  02 57  -21.5602 18641.3 -13745.7 -36.4042 23161.2
 22 06 2015  02 58  -21.5598 18641.4 -13745.6 -36.4039 23161.3
 22 06 2015  02 59  -21.5601 18641.3 -13745.6 -36.4040 23161.2
 22 06 2015  03 00  -21.5596 18641.6 -13745.6 -36.4036 23161.4
 22 06 2015  03 01  -21.5590 18641.7 -13745.6 -36.4033 23161.5
 22 06 2015  03 02  -21.5593 18641.6 -13745.5 -36.4035 23161.4
 22 06 2015  03 03  -21.5596 18641.5 -13745.5 -36.4035 23161.3
 22 06 2015  03 04  -21.5599 18641.4 -13745.5 -36.4037 23161.2
 22 06 2015  03 05  -21.5600 18641.3 -13745.5 -36.4038 23161.1
 22 06 2015  03 06  -21.5603 18641.2 -13745.5 -36.4041 23161.0
 22 06 2015  03 07  -21.5609 18641.1 -13745.5 -36.4042 23161.0
 22 06 2015  03 08  -21.5613 18641.0 -13745.5 -36.4043 23160.8
 22 06 2015  03 09  -21.5617 18640.8 -13745.5 -36.4046 23160.7
 22 06 2015  03 10  -21.5612 18640.9 -13745.6 -36.4045 23160.8
 22 06 2015  03 11  -21.5612 18640.9 -13745.6 -36.4045 23160.8
 22 06 2015  03 12  -21.5615 18640.8 -13745.6 -36.4047 23160.8
 22 06 2015  03 13  -21.5613 18640.9 -13745.6 -36.4045 23160.9
 22 06 2015  03 14  -21.5609 18641.1 -13745.6 -36.4042 23161.0
 22 06 2015  03 15  -21.5606 18641.1 -13745.6 -36.4042 23161.0
 22 06 2015  03 16  -21.5602 18641.2 -13745.6 -36.4040 23161.1
 22 06 2015  03 17  -21.5597 18641.5 -13745.6 -36.4036 23161.3
 22 06 2015  03 18  -21.5595 18641.6 -13745.5 -36.4034 23161.4
 22 06 2015  03 19  -21.5594 18641.7 -13745.5 -36.4032 23161.5
 22 06 2015  03 20  -21.5592 18642.0 -13745.5 -36.4028 23161.6
 22 06 2015  03 21  -21.5592 18642.1 -13745.4 -36.4025 23161.7
 22 06 2015  03 22  -21.5593 18642.2 -13745.4 -36.4023 23161.7
 22 06 2015  03 23  -21.5593 18642.2 -13745.4 -36.4022 23161.8
 22 06 2015  03 24  -21.5596 18642.2 -13745.3 -36.4021 23161.7
 22 06 2015  03 25  -21.5605 18641.9 -13745.3 -36.4026 23161.5
 22 06 2015  03 26  -21.5614 18641.6 -13745.4 -36.4030 23161.3
 22 06 2015  03 27  -21.5614 18641.7 -13745.4 -36.4030 23161.3
 22 06 2015  03 28  -21.5615 18641.5 -13745.4 -36.4033 23161.2
 22 06 2015  03 29  -21.5618 18641.2 -13745.5 -36.4038 23161.0
 22 06 2015  03 30  -21.5621 18640.8 -13745.6 -36.4046 23160.8
 22 06 2015  03 31  -21.5624 18640.7 -13745.6 -36.4049 23160.7
 22 06 2015  03 32  -21.5626 18640.4 -13745.7 -36.4055 23160.5
 22 06 2015  03 33  -21.5628 18640.1 -13745.7 -36.4060 23160.3
 22 06 2015  03 34  -21.5625 18640.1 -13745.8 -36.4061 23160.3
 22 06 2015  03 35  -21.5621 18640.0 -13745.8 -36.4063 23160.3
 22 06 2015  03 36  -21.5621 18640.0 -13745.8 -36.4064 23160.2
 22 06 2015  03 37  -21.5622 18639.9 -13745.8 -36.4065 23160.2
 22 06 2015  03 38  -21.5617 18640.0 -13745.8 -36.4063 23160.3
 22 06 2015  03 39  -21.5613 18640.0 -13745.9 -36.4064 23160.3
 22 06 2015  03 40  -21.5612 18640.0 -13745.9 -36.4064 23160.3
 22 06 2015  03 41  -21.5609 18640.2 -13745.8 -36.4062 23160.4
 22 06 2015  03 42  -21.5606 18640.2 -13745.9 -36.4061 23160.4
 22 06 2015  03 43  -21.5603 18640.2 -13745.8 -36.4061 23160.4
 22 06 2015  03 44  -21.5599 18640.2 -13745.8 -36.4061 23160.4
 22 06 2015  03 45  -21.5598 18640.2 -13745.8 -36.4061 23160.4
 22 06 2015  03 46  -21.5596 18640.3 -13745.8 -36.4059 23160.5
 22 06 2015  03 47  -21.5592 18640.3 -13745.8 -36.4058 23160.5
 22 06 2015  03 48  -21.5587 18640.6 -13745.8 -36.4054 23160.7
 22 06 2015  03 49  -21.5582 18640.8 -13745.7 -36.4049 23160.9
 22 06 2015  03 50  -21.5579 18640.9 -13745.7 -36.4048 23160.9
 22 06 2015  03 51  -21.5578 18641.0 -13745.6 -36.4045 23160.9
 22 06 2015  03 52  -21.5579 18641.2 -13745.6 -36.4042 23161.0
 22 06 2015  03 53  -21.5579 18641.3 -13745.6 -36.4040 23161.1
 22 06 2015  03 54  -21.5579 18641.2 -13745.6 -36.4040 23161.1
 22 06 2015  03 55  -21.5576 18641.3 -13745.6 -36.4040 23161.1
 22 06 2015  03 56  -21.5572 18641.4 -13745.6 -36.4039 23161.2
 22 06 2015  03 57  -21.5569 18641.6 -13745.6 -36.4036 23161.3
 22 06 2015  03 58  -21.5566 18641.7 -13745.6 -36.4034 23161.4
 22 06 2015  03 59  -21.5565 18641.7 -13745.5 -36.4032 23161.5
 22 06 2015  04 00  -21.5569 18641.7 -13745.5 -36.4032 23161.4
 22 06 2015  04 01  -21.5573 18641.7 -13745.5 -36.4032 23161.4
 22 06 2015  04 02  -21.5575 18641.7 -13745.5 -36.4032 23161.4
 22 06 2015  04 03  -21.5580 18641.7 -13745.5 -36.4032 23161.4
 22 06 2015  04 04  -21.5587 18641.5 -13745.5 -36.4035 23161.3
 22 06 2015  04 05  -21.5593 18641.5 -13745.5 -36.4035 23161.2
 22 06 2015  04 06  -21.5598 18641.4 -13745.5 -36.4035 23161.2
 22 06 2015  04 07  -21.5605 18641.3 -13745.4 -36.4037 23161.0
 22 06 2015  04 08  -21.5610 18641.2 -13745.4 -36.4038 23161.0
 22 06 2015  04 09  -21.5614 18641.2 -13745.4 -36.4039 23160.9
 22 06 2015  04 10  -21.5616 18641.1 -13745.4 -36.4039 23160.9
 22 06 2015  04 11  -21.5622 18640.9 -13745.4 -36.4042 23160.8
 22 06 2015  04 12  -21.5626 18640.8 -13745.4 -36.4044 23160.6
 22 06 2015  04 13  -21.5628 18640.7 -13745.4 -36.4045 23160.6
 22 06 2015  04 14  -21.5629 18640.7 -13745.5 -36.4047 23160.6
 22 06 2015  04 15  -21.5633 18640.5 -13745.5 -36.4049 23160.5
 22 06 2015  04 16  -21.5633 18640.6 -13745.5 -36.4048 23160.5
 22 06 2015  04 17  -21.5631 18640.7 -13745.5 -36.4047 23160.6
 22 06 2015  04 18  -21.5632 18640.6 -13745.5 -36.4049 23160.5
 22 06 2015  04 19  -21.5630 18640.7 -13745.5 -36.4048 23160.6
 22 06 2015  04 20  -21.5624 18640.9 -13745.5 -36.4045 23160.8
 22 06 2015  04 21  -21.5617 18641.0 -13745.5 -36.4044 23160.9
 22 06 2015  04 22  -21.5616 18641.0 -13745.5 -36.4044 23160.9
 22 06 2015  04 23  -21.5613 18641.1 -13745.6 -36.4042 23161.0
 22 06 2015  04 24  -21.5607 18641.3 -13745.6 -36.4040 23161.1
 22 06 2015  04 25  -21.5604 18641.3 -13745.6 -36.4040 23161.2
 22 06 2015  04 26  -21.5606 18641.1 -13745.6 -36.4043 23161.0
 22 06 2015  04 27  -21.5607 18641.2 -13745.6 -36.4043 23161.1
 22 06 2015  04 28  -21.5605 18641.3 -13745.7 -36.4041 23161.2
 22 06 2015  04 29  -21.5606 18641.2 -13745.7 -36.4042 23161.1
 22 06 2015  04 30  -21.5610 18640.9 -13745.7 -36.4048 23160.9
 22 06 2015  04 31  -21.5616 18640.6 -13745.7 -36.4053 23160.7
 22 06 2015  04 32  -21.5618 18640.5 -13745.8 -36.4055 23160.6
 22 06 2015  04 33  -21.5615 18640.6 -13745.8 -36.4054 23160.7
 22 06 2015  04 34  -21.5616 18640.4 -13745.8 -36.4057 23160.6
 22 06 2015  04 35  -21.5616 18640.3 -13745.8 -36.4060 23160.5
 22 06 2015  04 36  -21.5619 18640.0 -13745.8 -36.4064 23160.3
 22 06 2015  04 37  -21.5622 18639.9 -13745.9 -36.4066 23160.2
 22 06 2015  04 38  -21.5622 18639.8 -13745.9 -36.4068 23160.1
 22 06 2015  04 39  -21.5623 18639.6 -13745.9 -36.4070 23159.9
 22 06 2015  04 40  -21.5621 18639.6 -13745.9 -36.4070 23159.9
 22 06 2015  04 41  -21.5621 18639.6 -13745.8 -36.4069 23160.0
 22 06 2015  04 42  -21.5624 18639.6 -13745.8 -36.4069 23159.9
 22 06 2015  04 43  -21.5626 18639.5 -13745.8 -36.4070 23159.9
 22 06 2015  04 44  -21.5625 18639.6 -13745.8 -36.4068 23159.9
 22 06 2015  04 45  -21.5618 18639.8 -13745.7 -36.4065 23160.0
 22 06 2015  04 46  -21.5612 18640.0 -13745.7 -36.4061 23160.2
 22 06 2015  04 47  -21.5612 18640.0 -13745.7 -36.4060 23160.1
 22 06 2015  04 48  -21.5616 18640.1 -13745.6 -36.4057 23160.2
 22 06 2015  04 49  -21.5610 18640.5 -13745.5 -36.4050 23160.5
 22 06 2015  04 50  -21.5604 18640.6 -13745.5 -36.4048 23160.5
 22 06 2015  04 51  -21.5602 18640.7 -13745.5 -36.4046 23160.6
 22 06 2015  04 52  -21.5593 18641.1 -13745.5 -36.4041 23160.9
 22 06 2015  04 53  -21.5592 18641.0 -13745.4 -36.4040 23160.8
 22 06 2015  04 54  -21.5595 18641.0 -13745.4 -36.4041 23160.8
 22 06 2015  04 55  -21.5586 18641.3 -13745.4 -36.4037 23161.1
 22 06 2015  04 56  -21.5583 18641.3 -13745.4 -36.4037 23161.1
 22 06 2015  04 57  -21.5584 18641.3 -13745.4 -36.4037 23161.0
 22 06 2015  04 58  -21.5579 18641.4 -13745.4 -36.4036 23161.1
 22 06 2015  04 59  -21.5578 18641.3 -13745.5 -36.4036 23161.1
 22 06 2015  05 00  -21.5576 18641.3 -13745.5 -36.4037 23161.1
 22 06 2015  05 01  -21.5575 18641.3 -13745.5 -36.4038 23161.1
 22 06 2015  05 02  -21.5573 18641.1 -13745.6 -36.4042 23161.0
 22 06 2015  05 03  -21.5580 18640.7 -13745.6 -36.4050 23160.7
 22 06 2015  05 04  -21.5589 18640.2 -13745.7 -36.4058 23160.4
 22 06 2015  05 05  -21.5597 18639.7 -13745.8 -36.4068 23160.0
 22 06 2015  05 06  -21.5609 18639.3 -13745.9 -36.4075 23159.7
 22 06 2015  05 07  -21.5614 18639.3 -13746.0 -36.4076 23159.8
 22 06 2015  05 08  -21.5613 18639.3 -13746.0 -36.4077 23159.8
 22 06 2015  05 09  -21.5610 18639.5 -13746.0 -36.4074 23160.0
 22 06 2015  05 10  -21.5605 18639.8 -13746.0 -36.4070 23160.2
 22 06 2015  05 11  -21.5598 18640.0 -13745.9 -36.4065 23160.3
 22 06 2015  05 12  -21.5588 18640.4 -13745.9 -36.4059 23160.6
 22 06 2015  05 13  -21.5578 18640.6 -13745.8 -36.4055 23160.8
 22 06 2015  05 14  -21.5574 18640.7 -13745.8 -36.4053 23160.9
 22 06 2015  05 15  -21.5569 18641.0 -13745.8 -36.4049 23161.0
 22 06 2015  05 16  -21.5563 18641.2 -13745.8 -36.4044 23161.2
 22 06 2015  05 17  -21.5561 18641.3 -13745.8 -36.4043 23161.3
 22 06 2015  05 18  -21.5563 18641.2 -13745.8 -36.4044 23161.2
 22 06 2015  05 19  -21.5565 18641.1 -13745.7 -36.4045 23161.1
 22 06 2015  05 20  -21.5570 18640.9 -13745.8 -36.4049 23161.0
 22 06 2015  05 21  -21.5574 18641.1 -13745.8 -36.4046 23161.1
 22 06 2015  05 22  -21.5570 18641.6 -13745.7 -36.4037 23161.5
 22 06 2015  05 23  -21.5558 18642.2 -13745.6 -36.4028 23161.9
 22 06 2015  05 24  -21.5546 18642.7 -13745.6 -36.4018 23162.3
 22 06 2015  05 25  -21.5539 18643.1 -13745.5 -36.4013 23162.5
 22 06 2015  05 26  -21.5539 18643.0 -13745.5 -36.4013 23162.5
 22 06 2015  05 27  -21.5547 18642.5 -13745.6 -36.4022 23162.1
 22 06 2015  05 28  -21.5561 18642.0 -13745.7 -36.4031 23161.8
 22 06 2015  05 29  -21.5576 18641.7 -13745.8 -36.4037 23161.6
 22 06 2015  05 30  -21.5592 18641.5 -13745.8 -36.4041 23161.4
 22 06 2015  05 31  -21.5607 18641.3 -13745.8 -36.4044 23161.3
 22 06 2015  05 32  -21.5619 18641.2 -13745.8 -36.4045 23161.2
 22 06 2015  05 33  -21.5632 18641.2 -13745.8 -36.4046 23161.1
 22 06 2015  05 34  -21.5642 18641.1 -13745.8 -36.4046 23161.1
 22 06 2015  05 35  -21.5647 18641.4 -13745.7 -36.4040 23161.3
 22 06 2015  05 36  -21.5643 18641.6 -13745.6 -36.4036 23161.5
 22 06 2015  05 37  -21.5641 18641.6 -13745.6 -36.4036 23161.4
 22 06 2015  05 38  -21.5641 18641.5 -13745.6 -36.4037 23161.4
 22 06 2015  05 39  -21.5646 18641.3 -13745.6 -36.4040 23161.2
 22 06 2015  05 40  -21.5656 18641.0 -13745.6 -36.4045 23160.9
 22 06 2015  05 41  -21.5667 18640.8 -13745.7 -36.4050 23160.8
 22 06 2015  05 42  -21.5678 18640.7 -13745.7 -36.4051 23160.7
 22 06 2015  05 43  -21.5686 18640.7 -13745.7 -36.4051 23160.7
 22 06 2015  05 44  -21.5686 18640.8 -13745.7 -36.4048 23160.8
 22 06 2015  05 45  -21.5707 18642.7 -13745.3 -36.4014 23162.2
 22 06 2015  05 46  -21.5591 18648.8 -13744.9 -36.3914 23166.8
 22 06 2015  05 47  -21.5410 18655.8 -13744.1 -36.3798 23172.0
 22 06 2015  05 48  -21.5307 18660.0 -13743.3 -36.3721 23174.8
 22 06 2015  05 49  -21.5319 18659.6 -13742.9 -36.3718 23174.3
 22 06 2015  05 50  -21.5359 18658.9 -13742.8 -36.3727 23173.7
 22 06 2015  05 51  -21.5407 18657.3 -13742.9 -36.3750 23172.4
 22 06 2015  05 52  -21.5465 18655.7 -13743.0 -36.3776 23171.2
 22 06 2015  05 53  -21.5514 18653.7 -13743.2 -36.3811 23169.7
 22 06 2015  05 54  -21.5571 18652.2 -13743.4 -36.3837 23168.6
 22 06 2015  05 55  -21.5633 18650.8 -13743.5 -36.3858 23167.5
 22 06 2015  05 56  -21.5682 18649.6 -13743.5 -36.3877 23166.7
 22 06 2015  05 57  -21.5689 18649.6 -13743.6 -36.3877 23166.7
 22 06 2015  05 58  -21.5693 18649.5 -13743.5 -36.3878 23166.5
 22 06 2015  05 59  -21.5696 18649.0 -13743.5 -36.3885 23166.1
 22 06 2015  06 00  -21.5690 18648.4 -13743.6 -36.3895 23165.7
 22 06 2015  06 01  -21.5685 18648.0 -13743.7 -36.3905 23165.4
 22 06 2015  06 02  -21.5680 18647.0 -13743.9 -36.3922 23164.7
 22 06 2015  06 03  -21.5670 18646.4 -13744.1 -36.3934 23164.4
 22 06 2015  06 04  -21.5666 18645.9 -13744.2 -36.3945 23164.1
 22 06 2015  06 05  -21.5666 18645.5 -13744.4 -36.3953 23163.8
 22 06 2015  06 06  -21.5661 18645.5 -13744.4 -36.3955 23163.9
 22 06 2015  06 07  -21.5646 18645.8 -13744.5 -36.3951 23164.1
 22 06 2015  06 08  -21.5631 18645.8 -13744.5 -36.3953 23164.1
 22 06 2015  06 09  -21.5629 18645.6 -13744.6 -36.3957 23164.0
 22 06 2015  06 10  -21.5643 18644.9 -13744.6 -36.3967 23163.5
 22 06 2015  06 11  -21.5642 18644.6 -13744.7 -36.3974 23163.3
 22 06 2015  06 12  -21.5647 18644.6 -13744.7 -36.3973 23163.3
 22 06 2015  06 13  -21.5638 18645.0 -13744.7 -36.3968 23163.6
 22 06 2015  06 14  -21.5620 18645.6 -13744.6 -36.3958 23164.0
 22 06 2015  06 15  -21.5624 18645.5 -13744.6 -36.3959 23163.9
 22 06 2015  06 16  -21.5652 18644.5 -13744.6 -36.3973 23163.1
 22 06 2015  06 17  -21.5684 18643.4 -13744.6 -36.3990 23162.3
 22 06 2015  06 18  -21.5686 18642.8 -13744.8 -36.4002 23161.9
 22 06 2015  06 19  -21.5673 18643.4 -13744.9 -36.3994 23162.4
 22 06 2015  06 20  -21.5677 18643.3 -13744.8 -36.3995 23162.3
 22 06 2015  06 21  -21.5680 18643.0 -13744.9 -36.4001 23162.1
 22 06 2015  06 22  -21.5682 18643.2 -13744.9 -36.3997 23162.3
 22 06 2015  06 23  -21.5685 18643.1 -13744.9 -36.3999 23162.2
 22 06 2015  06 24  -21.5693 18642.8 -13744.9 -36.4005 23162.0
 22 06 2015  06 25  -21.5693 18642.9 -13745.0 -36.4003 23162.1
 22 06 2015  06 26  -21.5710 18642.3 -13745.0 -36.4012 23161.6
 22 06 2015  06 27  -21.5713 18642.3 -13745.0 -36.4014 23161.6
 22 06 2015  06 28  -21.5708 18642.6 -13745.1 -36.4010 23161.9
 22 06 2015  06 29  -21.5710 18642.5 -13745.0 -36.4011 23161.8
 22 06 2015  06 30  -21.5706 18642.6 -13745.1 -36.4010 23161.9
 22 06 2015  06 31  -21.5707 18642.7 -13745.1 -36.4009 23161.9
 22 06 2015  06 32  -21.5722 18642.4 -13745.1 -36.4013 23161.7
 22 06 2015  06 33  -21.5736 18642.5 -13745.1 -36.4012 23161.8
 22 06 2015  06 34  -21.5745 18642.8 -13745.0 -36.4005 23162.0
 22 06 2015  06 35  -21.5758 18642.4 -13744.9 -36.4010 23161.7
 22 06 2015  06 36  -21.5763 18642.4 -13744.9 -36.4010 23161.6
 22 06 2015  06 37  -21.5793 18641.3 -13744.9 -36.4026 23160.8
 22 06 2015  06 38  -21.5825 18640.3 -13745.0 -36.4043 23160.0
 22 06 2015  06 39  -21.5833 18639.8 -13745.1 -36.4052 23159.6
 22 06 2015  06 40  -21.5847 18639.3 -13745.1 -36.4061 23159.3
 22 06 2015  06 41  -21.5864 18639.1 -13745.1 -36.4063 23159.1
 22 06 2015  06 42  -21.5883 18639.1 -13745.0 -36.4061 23159.1
 22 06 2015  06 43  -21.5885 18639.1 -13745.0 -36.4061 23159.1
 22 06 2015  06 44  -21.5867 18639.8 -13745.0 -36.4050 23159.6
 22 06 2015  06 45  -21.5858 18640.0 -13744.9 -36.4045 23159.8
 22 06 2015  06 46  -21.5858 18640.2 -13744.9 -36.4041 23159.9
 22 06 2015  06 47  -21.5861 18640.1 -13744.8 -36.4042 23159.8
 22 06 2015  06 48  -21.5866 18639.7 -13744.8 -36.4048 23159.4
 22 06 2015  06 49  -21.5863 18639.4 -13744.9 -36.4054 23159.3
 22 06 2015  06 50  -21.5858 18639.1 -13745.0 -36.4060 23159.1
 22 06 2015  06 51  -21.5851 18639.1 -13745.1 -36.4063 23159.1
 22 06 2015  06 52  -21.5847 18639.4 -13745.2 -36.4060 23159.4
 22 06 2015  06 53  -21.5843 18639.6 -13745.2 -36.4057 23159.5
 22 06 2015  06 54  -21.5865 18639.1 -13745.2 -36.4064 23159.2
 22 06 2015  06 55  -21.5872 18639.6 -13745.1 -36.4056 23159.5
 22 06 2015  06 56  -21.5880 18639.4 -13745.1 -36.4057 23159.4
 22 06 2015  06 57  -21.5873 18639.8 -13745.1 -36.4052 23159.6
 22 06 2015  06 58  -21.5873 18639.7 -13745.1 -36.4053 23159.5
 22 06 2015  06 59  -21.5874 18639.4 -13745.1 -36.4057 23159.3
 22 06 2015  07 00  -21.5881 18638.7 -13745.1 -36.4069 23158.8
 22 06 2015  07 01  -21.5873 18638.7 -13745.2 -36.4070 23158.8
 22 06 2015  07 02  -21.5867 18639.2 -13745.1 -36.4060 23159.2
 22 06 2015  07 03  -21.5844 18639.8 -13745.1 -36.4052 23159.6
 22 06 2015  07 04  -21.5819 18640.3 -13745.0 -36.4042 23160.0
 22 06 2015  07 05  -21.5801 18640.7 -13744.9 -36.4035 23160.3
 22 06 2015  07 06  -21.5796 18641.4 -13744.8 -36.4024 23160.8
 22 06 2015  07 07  -21.5795 18641.6 -13744.7 -36.4018 23160.9
 22 06 2015  07 08  -21.5783 18642.0 -13744.7 -36.4012 23161.1
 22 06 2015  07 09  -21.5774 18641.8 -13744.7 -36.4013 23161.0
 22 06 2015  07 10  -21.5762 18642.1 -13744.7 -36.4011 23161.3
 22 06 2015  07 11  -21.5768 18642.1 -13744.7 -36.4009 23161.3
 22 06 2015  07 12  -21.5773 18642.4 -13744.6 -36.4005 23161.5
 22 06 2015  07 13  -21.5770 18643.4 -13744.5 -36.3988 23162.2
 22 06 2015  07 14  -21.5777 18644.1 -13744.4 -36.3974 23162.7
 22 06 2015  07 15  -21.5786 18644.8 -13744.2 -36.3960 23163.1
 22 06 2015  07 16  -21.5794 18645.7 -13743.9 -36.3942 23163.7
 22 06 2015  07 17  -21.5783 18646.8 -13743.7 -36.3922 23164.5
 22 06 2015  07 18  -21.5781 18647.6 -13743.5 -36.3905 23164.9
 22 06 2015  07 19  -21.5782 18647.8 -13743.4 -36.3901 23165.0
 22 06 2015  07 20  -21.5808 18647.1 -13743.3 -36.3909 23164.5
 22 06 2015  07 21  -21.5843 18646.2 -13743.3 -36.3923 23163.8
 22 06 2015  07 22  -21.5853 18645.8 -13743.4 -36.3930 23163.5
 22 06 2015  07 23  -21.5846 18645.5 -13743.5 -36.3936 23163.3
 22 06 2015  07 24  -21.5839 18645.1 -13743.5 -36.3943 23163.0
 22 06 2015  07 25  -21.5835 18645.2 -13743.5 -36.3942 23163.1
 22 06 2015  07 26  -21.5816 18645.2 -13743.6 -36.3943 23163.2
 22 06 2015  07 27  -21.5775 18645.8 -13743.7 -36.3935 23163.6
 22 06 2015  07 28  -21.5733 18646.4 -13743.6 -36.3926 23164.1
 22 06 2015  07 29  -21.5684 18646.6 -13743.7 -36.3925 23164.3
 22 06 2015  07 30  -21.5642 18646.1 -13743.9 -36.3935 23164.0
 22 06 2015  07 31  -21.5623 18645.0 -13744.1 -36.3956 23163.3
 22 06 2015  07 32  -21.5613 18644.5 -13744.4 -36.3969 23163.1
 22 06 2015  07 33  -21.5605 18644.0 -13744.6 -36.3981 23162.7
 22 06 2015  07 34  -21.5605 18643.7 -13744.8 -36.3989 23162.6
 22 06 2015  07 35  -21.5599 18643.9 -13744.9 -36.3987 23162.8
 22 06 2015  07 36  -21.5584 18644.4 -13744.8 -36.3980 23163.2
 22 06 2015  07 37  -21.5575 18644.9 -13744.8 -36.3971 23163.6
 22 06 2015  07 38  -21.5550 18645.8 -13744.7 -36.3955 23164.3
 22 06 2015  07 39  -21.5519 18647.9 -13744.4 -36.3920 23165.8
 22 06 2015  07 40  -21.5499 18649.8 -13744.1 -36.3886 23167.1
 22 06 2015  07 41  -21.5488 18650.5 -13743.9 -36.3871 23167.6
 22 06 2015  07 42  -21.5501 18650.4 -13743.7 -36.3869 23167.4
 22 06 2015  07 43  -21.5520 18650.6 -13743.7 -36.3865 23167.5
 22 06 2015  07 44  -21.5525 18651.4 -13743.4 -36.3847 23168.0
 22 06 2015  07 45  -21.5522 18652.4 -13743.2 -36.3829 23168.6
 22 06 2015  07 46  -21.5500 18653.9 -13742.9 -36.3802 23169.7
 22 06 2015  07 47  -21.5477 18654.0 -13742.8 -36.3798 23169.7
 22 06 2015  07 48  -21.5483 18653.2 -13742.9 -36.3811 23169.1
 22 06 2015  07 49  -21.5483 18653.5 -13742.9 -36.3808 23169.4
 22 06 2015  07 50  -21.5480 18654.1 -13742.9 -36.3798 23169.8
 22 06 2015  07 51  -21.5476 18654.9 -13742.8 -36.3785 23170.4
 22 06 2015  07 52  -21.5478 18654.9 -13742.7 -36.3782 23170.4
 22 06 2015  07 53  -21.5490 18654.3 -13742.8 -36.3793 23170.0
 22 06 2015  07 54  -21.5485 18654.4 -13742.9 -36.3793 23170.1
 22 06 2015  07 55  -21.5485 18654.7 -13742.9 -36.3789 23170.3
 22 06 2015  07 56  -21.5486 18655.1 -13742.9 -36.3783 23170.6
 22 06 2015  07 57  -21.5486 18655.2 -13742.8 -36.3781 23170.7
 22 06 2015  07 58  -21.5484 18655.4 -13742.9 -36.3779 23170.9
 22 06 2015  07 59  -21.5485 18655.3 -13742.9 -36.3781 23170.8
 22 06 2015  08 00  -21.5484 18655.3 -13742.9 -36.3780 23170.9
 22 06 2015  08 01  -21.5491 18655.4 -13742.9 -36.3779 23170.9
 22 06 2015  08 02  -21.5493 18655.5 -13742.9 -36.3779 23171.0
 22 06 2015  08 03  -21.5500 18655.7 -13742.9 -36.3776 23171.2
 22 06 2015  08 04  -21.5503 18656.1 -13742.8 -36.3768 23171.5
 22 06 2015  08 05  -21.5512 18656.0 -13742.7 -36.3768 23171.3
 22 06 2015  08 06  -21.5520 18656.0 -13742.8 -36.3768 23171.3
 22 06 2015  08 07  -21.5524 18656.4 -13742.7 -36.3759 23171.6
 22 06 2015  08 08  -21.5532 18656.5 -13742.6 -36.3757 23171.6
 22 06 2015  08 09  -21.5535 18656.8 -13742.6 -36.3753 23171.9
 22 06 2015  08 10  -21.5541 18657.0 -13742.5 -36.3747 23171.9
 22 06 2015  08 11  -21.5548 18657.1 -13742.4 -36.3743 23172.0
 22 06 2015  08 12  -21.5555 18657.4 -13742.3 -36.3738 23172.2
 22 06 2015  08 13  -21.5561 18657.6 -13742.2 -36.3734 23172.2
 22 06 2015  08 14  -21.5576 18657.7 -13742.1 -36.3730 23172.3
 22 06 2015  08 15  -21.5587 18658.0 -13742.0 -36.3723 23172.5
 22 06 2015  08 16  -21.5598 18658.2 -13741.9 -36.3718 23172.6
 22 06 2015  08 17  -21.5609 18658.1 -13741.8 -36.3718 23172.4
 22 06 2015  08 18  -21.5612 18658.5 -13741.7 -36.3709 23172.7
 22 06 2015  08 19  -21.5616 18658.4 -13741.7 -36.3710 23172.6
 22 06 2015  08 20  -21.5618 18657.9 -13741.6 -36.3718 23172.2
 22 06 2015  08 21  -21.5643 18657.0 -13741.8 -36.3734 23171.5
 22 06 2015  08 22  -21.5655 18657.2 -13741.8 -36.3730 23171.7
 22 06 2015  08 23  -21.5653 18656.8 -13741.8 -36.3737 23171.4
 22 06 2015  08 24  -21.5663 18656.4 -13741.9 -36.3744 23171.1
 22 06 2015  08 25  -21.5668 18656.9 -13741.9 -36.3737 23171.5
 22 06 2015  08 26  -21.5657 18656.8 -13741.9 -36.3738 23171.5
 22 06 2015  08 27  -21.5668 18656.5 -13742.0 -36.3745 23171.3
 22 06 2015  08 28  -21.5682 18656.6 -13742.0 -36.3743 23171.4
 22 06 2015  08 29  -21.5690 18656.6 -13741.9 -36.3742 23171.3
 22 06 2015  08 30  -21.5699 18656.6 -13741.9 -36.3742 23171.2
 22 06 2015  08 31  -21.5710 18656.2 -13741.9 -36.3747 23171.0
 22 06 2015  08 32  -21.5711 18656.4 -13741.9 -36.3743 23171.1
 22 06 2015  08 33  -21.5703 18656.0 -13741.9 -36.3751 23170.8
 22 06 2015  08 34  -21.5706 18655.7 -13742.0 -36.3756 23170.6
 22 06 2015  08 35  -21.5708 18654.7 -13742.1 -36.3773 23169.9
 22 06 2015  08 36  -21.5717 18653.7 -13742.3 -36.3792 23169.1
 22 06 2015  08 37  -21.5731 18653.0 -13742.5 -36.3806 23168.7
 22 06 2015  08 38  -21.5732 18652.8 -13742.6 -36.3810 23168.7
 22 06 2015  08 39  -21.5723 18652.4 -13742.7 -36.3820 23168.4
 22 06 2015  08 40  -21.5718 18651.2 -13742.9 -36.3842 23167.5
 22 06 2015  08 41  -21.5718 18650.3 -13743.1 -36.3859 23166.9
 22 06 2015  08 42  -21.5706 18650.2 -13743.3 -36.3863 23166.9
 22 06 2015  08 43  -21.5688 18649.4 -13743.4 -36.3878 23166.4
 22 06 2015  08 44  -21.5690 18648.2 -13743.8 -36.3904 23165.6
 22 06 2015  08 45  -21.5702 18647.6 -13744.0 -36.3916 23165.3
 22 06 2015  08 46  -21.5697 18647.8 -13744.2 -36.3917 23165.6
 22 06 2015  08 47  -21.5701 18647.4 -13744.2 -36.3923 23165.2
 22 06 2015  08 48  -21.5705 18647.5 -13744.3 -36.3922 23165.4
 22 06 2015  08 49  -21.5711 18648.1 -13744.1 -36.3911 23165.8
 22 06 2015  08 50  -21.5703 18648.9 -13743.9 -36.3895 23166.3
 22 06 2015  08 51  -21.5693 18649.0 -13743.8 -36.3892 23166.3
 22 06 2015  08 52  -21.5691 18649.5 -13743.8 -36.3883 23166.7
 22 06 2015  08 53  -21.5685 18649.8 -13743.6 -36.3875 23166.8
 22 06 2015  08 54  -21.5684 18649.5 -13743.5 -36.3878 23166.5
 22 06 2015  08 55  -21.5691 18649.3 -13743.5 -36.3880 23166.4
 22 06 2015  08 56  -21.5700 18648.7 -13743.4 -36.3888 23165.9
 22 06 2015  08 57  -21.5711 18648.3 -13743.5 -36.3894 23165.5
 22 06 2015  08 58  -21.5725 18647.6 -13743.4 -36.3904 23165.0
 22 06 2015  08 59  -21.5745 18647.4 -13743.5 -36.3908 23164.8
 22 06 2015  09 00  -21.5749 18647.9 -13743.4 -36.3898 23165.2
 22 06 2015  09 01  -21.5750 18648.2 -13743.2 -36.3891 23165.2
 22 06 2015  09 02  -21.5746 18648.1 -13743.0 -36.3888 23165.1
 22 06 2015  09 03  -21.5736 18648.4 -13742.8 -36.3882 23165.2
 22 06 2015  09 04  -21.5724 18648.3 -13742.7 -36.3880 23165.1
 22 06 2015  09 05  -21.5715 18648.0 -13742.7 -36.3884 23164.8
 22 06 2015  09 06  -21.5713 18647.5 -13742.8 -36.3893 23164.4
 22 06 2015  09 07  -21.5715 18646.4 -13742.8 -36.3909 23163.6
 22 06 2015  09 08  -21.5715 18645.9 -13742.9 -36.3918 23163.2
 22 06 2015  09 09  -21.5719 18645.3 -13742.9 -36.3928 23162.8
 22 06 2015  09 10  -21.5719 18645.2 -13742.9 -36.3929 23162.7
 22 06 2015  09 11  -21.5713 18645.3 -13742.8 -36.3926 23162.7
 22 06 2015  09 12  -21.5712 18645.5 -13742.6 -36.3918 23162.8
 22 06 2015  09 13  -21.5707 18646.2 -13742.4 -36.3905 23163.2
 22 06 2015  09 14  -21.5684 18646.2 -13742.3 -36.3904 23163.1
 22 06 2015  09 15  -21.5648 18646.0 -13742.4 -36.3908 23163.0
 22 06 2015  09 16  -21.5615 18646.0 -13742.4 -36.3907 23163.1
 22 06 2015  09 17  -21.5602 18645.4 -13742.5 -36.3918 23162.6
 22 06 2015  09 18  -21.5596 18644.6 -13742.6 -36.3931 23162.1
 22 06 2015  09 19  -21.5579 18643.7 -13742.8 -36.3949 23161.4
 22 06 2015  09 20  -21.5563 18642.8 -13743.0 -36.3967 23160.8
 22 06 2015  09 21  -21.5559 18642.1 -13743.2 -36.3981 23160.4
 22 06 2015  09 22  -21.5552 18642.0 -13743.3 -36.3985 23160.3
 22 06 2015  09 23  -21.5526 18641.6 -13743.2 -36.3989 23160.0
 22 06 2015  09 24  -21.5503 18641.1 -13743.4 -36.3998 23159.7
 22 06 2015  09 25  -21.5483 18640.7 -13743.5 -36.4007 23159.4
 22 06 2015  09 26  -21.5461 18640.2 -13743.6 -36.4016 23159.1
 22 06 2015  09 27  -21.5451 18640.2 -13743.7 -36.4019 23159.2
 22 06 2015  09 28  -21.5444 18640.6 -13743.7 -36.4012 23159.5
 22 06 2015  09 29  -21.5430 18641.3 -13743.4 -36.3996 23159.9
 22 06 2015  09 30  -21.5407 18641.9 -13743.2 -36.3984 23160.2
 22 06 2015  09 31  -21.5387 18641.5 -13743.2 -36.3989 23159.9
 22 06 2015  09 32  -21.5380 18641.0 -13743.3 -36.3998 23159.6
 22 06 2015  09 33  -21.5373 18640.7 -13743.4 -36.4005 23159.4
 22 06 2015  09 34  -21.5378 18640.9 -13743.4 -36.4001 23159.5
 22 06 2015  09 35  -21.5378 18641.6 -13743.2 -36.3988 23160.0
 22 06 2015  09 36  -21.5370 18642.1 -13743.1 -36.3978 23160.3
 22 06 2015  09 37  -21.5350 18642.4 -13742.9 -36.3971 23160.5
 22 06 2015  09 38  -21.5330 18642.6 -13742.8 -36.3966 23160.6
 22 06 2015  09 39  -21.5312 18642.3 -13742.9 -36.3971 23160.4
 22 06 2015  09 40  -21.5298 18641.9 -13743.0 -36.3979 23160.0
 22 06 2015  09 41  -21.5289 18642.0 -13743.0 -36.3977 23160.2
 22 06 2015  09 42  -21.5287 18642.4 -13743.0 -36.3972 23160.5
 22 06 2015  09 43  -21.5277 18642.7 -13742.9 -36.3966 23160.7
 22 06 2015  09 44  -21.5263 18643.2 -13742.9 -36.3958 23161.1
 22 06 2015  09 45  -21.5241 18643.5 -13742.9 -36.3954 23161.3
 22 06 2015  09 46  -21.5229 18643.0 -13743.0 -36.3963 23161.0
 22 06 2015  09 47  -21.5225 18642.9 -13743.1 -36.3965 23161.0
 22 06 2015  09 48  -21.5222 18642.8 -13743.2 -36.3969 23160.9
 22 06 2015  09 49  -21.5230 18642.4 -13743.4 -36.3980 23160.7
 22 06 2015  09 50  -21.5232 18641.9 -13743.5 -36.3990 23160.4
 22 06 2015  09 51  -21.5242 18641.9 -13743.7 -36.3994 23160.5
 22 06 2015  09 52  -21.5251 18641.8 -13743.8 -36.3996 23160.5
 22 06 2015  09 53  -21.5264 18641.6 -13743.8 -36.4001 23160.3
 22 06 2015  09 54  -21.5276 18641.3 -13744.0 -36.4008 23160.3
 22 06 2015  09 55  -21.5285 18641.3 -13744.0 -36.4008 23160.2
 22 06 2015  09 56  -21.5306 18641.2 -13744.0 -36.4010 23160.1
 22 06 2015  09 57  -21.5339 18639.9 -13744.2 -36.4032 23159.2
 22 06 2015  09 58  -21.5358 18639.3 -13744.4 -36.4045 23158.8
 22 06 2015  09 59  -21.5348 18639.0 -13744.5 -36.4051 23158.7
 22 06 2015  10 00  -21.5330 18639.3 -13744.5 -36.4048 23158.9
 22 06 2015  10 01  -21.5312 18639.7 -13744.5 -36.4042 23159.2
 22 06 2015  10 02  -21.5283 18640.2 -13744.5 -36.4034 23159.6
 22 06 2015  10 03  -21.5262 18641.0 -13744.4 -36.4020 23160.2
 22 06 2015  10 04  -21.5234 18641.4 -13744.4 -36.4015 23160.6
 22 06 2015  10 05  -21.5206 18641.7 -13744.6 -36.4014 23160.9
 22 06 2015  10 06  -21.5191 18641.7 -13744.8 -36.4016 23161.0
 22 06 2015  10 07  -21.5176 18641.5 -13744.9 -36.4024 23160.9
 22 06 2015  10 08  -21.5158 18641.4 -13745.2 -36.4031 23161.0
 22 06 2015  10 09  -21.5148 18641.0 -13745.4 -36.4040 23160.8
 22 06 2015  10 10  -21.5148 18640.5 -13745.7 -36.4054 23160.5
 22 06 2015  10 11  -21.5136 18640.6 -13745.9 -36.4058 23160.8
 22 06 2015  10 12  -21.5126 18640.8 -13746.0 -36.4057 23161.0
 22 06 2015  10 13  -21.5126 18640.6 -13746.2 -36.4063 23161.0
 22 06 2015  10 14  -21.5132 18640.5 -13746.4 -36.4067 23161.0
 22 06 2015  10 15  -21.5132 18640.4 -13746.5 -36.4070 23161.0
 22 06 2015  10 16  -21.5128 18640.3 -13746.6 -36.4074 23161.0
 22 06 2015  10 17  -21.5120 18640.3 -13746.8 -36.4078 23161.1
 22 06 2015  10 18  -21.5116 18640.4 -13746.9 -36.4079 23161.2
 22 06 2015  10 19  -21.5115 18640.5 -13747.0 -36.4079 23161.3
 22 06 2015  10 20  -21.5117 18640.4 -13747.0 -36.4081 23161.3
 22 06 2015  10 21  -21.5122 18640.2 -13747.1 -36.4085 23161.2
 22 06 2015  10 22  -21.5125 18639.8 -13747.2 -36.4094 23161.0
 22 06 2015  10 23  -21.5134 18639.6 -13747.3 -36.4099 23160.8
 22 06 2015  10 24  -21.5142 18639.3 -13747.4 -36.4105 23160.6
 22 06 2015  10 25  -21.5146 18639.3 -13747.4 -36.4106 23160.6
 22 06 2015  10 26  -21.5150 18639.4 -13747.5 -36.4106 23160.7
 22 06 2015  10 27  -21.5153 18639.3 -13747.5 -36.4107 23160.7
 22 06 2015  10 28  -21.5157 18639.2 -13747.5 -36.4109 23160.6
 22 06 2015  10 29  -21.5162 18639.2 -13747.6 -36.4109 23160.7
 22 06 2015  10 30  -21.5174 18638.9 -13747.6 -36.4115 23160.4
 22 06 2015  10 31  -21.5182 18639.2 -13747.5 -36.4110 23160.6
 22 06 2015  10 32  -21.5179 18639.5 -13747.5 -36.4105 23160.9
 22 06 2015  10 33  -21.5170 18639.9 -13747.4 -36.4097 23161.1
 22 06 2015  10 34  -21.5162 18640.0 -13747.4 -36.4095 23161.2
 22 06 2015  10 35  -21.5158 18640.1 -13747.4 -36.4093 23161.2
 22 06 2015  10 36  -21.5147 18640.6 -13747.3 -36.4085 23161.6
 22 06 2015  10 37  -21.5136 18640.7 -13747.3 -36.4083 23161.7
 22 06 2015  10 38  -21.5126 18640.9 -13747.4 -36.4081 23161.9
 22 06 2015  10 39  -21.5117 18641.2 -13747.4 -36.4077 23162.1
 22 06 2015  10 40  -21.5110 18641.4 -13747.3 -36.4072 23162.3
 22 06 2015  10 41  -21.5099 18641.7 -13747.3 -36.4069 23162.5
 22 06 2015  10 42  -21.5082 18642.2 -13747.3 -36.4060 23162.8
 22 06 2015  10 43  -21.5073 18642.6 -13747.3 -36.4054 23163.2
 22 06 2015  10 44  -21.5054 18643.0 -13747.2 -36.4047 23163.5
 22 06 2015  10 45  -21.5034 18643.0 -13747.3 -36.4050 23163.5
 22 06 2015  10 46  -21.5053 18642.2 -13747.3 -36.4060 23162.9
 22 06 2015  10 47  -21.5084 18641.8 -13747.3 -36.4068 23162.6
 22 06 2015  10 48  -21.5076 18642.0 -13747.5 -36.4067 23162.8
 22 06 2015  10 49  -21.5051 18642.3 -13747.5 -36.4063 23163.1
 22 06 2015  10 50  -21.5021 18643.6 -13747.4 -36.4042 23164.1
 22 06 2015  10 51  -21.5006 18644.4 -13747.2 -36.4027 23164.6
 22 06 2015  10 52  -21.5009 18644.6 -13747.1 -36.4021 23164.7
 22 06 2015  10 53  -21.5007 18644.4 -13747.1 -36.4023 23164.5
 22 06 2015  10 54  -21.5006 18644.1 -13747.2 -36.4031 23164.3
 22 06 2015  10 55  -21.5011 18643.8 -13747.2 -36.4035 23164.1
 22 06 2015  10 56  -21.5027 18643.7 -13747.2 -36.4036 23164.0
 22 06 2015  10 57  -21.5032 18643.9 -13747.3 -36.4035 23164.3
 22 06 2015  10 58  -21.5027 18644.3 -13747.2 -36.4028 23164.6
 22 06 2015  10 59  -21.5031 18644.5 -13747.1 -36.4023 23164.7
 22 06 2015  11 00  -21.5038 18644.5 -13747.1 -36.4024 23164.6
 22 06 2015  11 01  -21.5040 18644.4 -13747.2 -36.4027 23164.6
 22 06 2015  11 02  -21.5051 18644.5 -13747.2 -36.4024 23164.7
 22 06 2015  11 03  -21.5047 18645.5 -13747.0 -36.4008 23165.4
 22 06 2015  11 04  -21.5043 18646.3 -13747.0 -36.3994 23166.0
 22 06 2015  11 05  -21.5038 18647.1 -13746.7 -36.3978 23166.5
 22 06 2015  11 06  -21.5033 18647.2 -13746.7 -36.3974 23166.6
 22 06 2015  11 07  -21.5033 18646.6 -13746.6 -36.3982 23166.1
 22 06 2015  11 08  -21.5041 18646.4 -13746.7 -36.3989 23165.9
 22 06 2015  11 09  -21.5050 18646.4 -13746.7 -36.3987 23165.9
 22 06 2015  11 10  -21.5051 18646.5 -13746.7 -36.3987 23166.0
 22 06 2015  11 11  -21.5046 18646.6 -13746.6 -36.3982 23166.1
 22 06 2015  11 12  -21.5044 18646.5 -13746.7 -36.3985 23166.0
 22 06 2015  11 13  -21.5044 18646.5 -13746.6 -36.3983 23166.0
 22 06 2015  11 14  -21.5052 18646.6 -13746.6 -36.3983 23166.0
 22 06 2015  11 15  -21.5066 18646.5 -13746.6 -36.3984 23166.0
 22 06 2015  11 16  -21.5065 18646.7 -13746.6 -36.3981 23166.1
 22 06 2015  11 17  -21.5065 18647.0 -13746.5 -36.3973 23166.3
 22 06 2015  11 18  -21.5067 18647.1 -13746.5 -36.3973 23166.3
 22 06 2015  11 19  -21.5063 18647.4 -13746.5 -36.3967 23166.6
 22 06 2015  11 20  -21.5060 18647.8 -13746.5 -36.3962 23166.9
 22 06 2015  11 21  -21.5057 18648.4 -13746.3 -36.3950 23167.3
 22 06 2015  11 22  -21.5052 18648.5 -13746.3 -36.3948 23167.3
 22 06 2015  11 23  -21.5044 18649.0 -13746.2 -36.3939 23167.7
 22 06 2015  11 24  -21.5040 18649.5 -13746.1 -36.3929 23168.0
 22 06 2015  11 25  -21.5040 18649.4 -13746.1 -36.3931 23168.0
 22 06 2015  11 26  -21.5044 18649.7 -13746.1 -36.3926 23168.2
 22 06 2015  11 27  -21.5045 18650.0 -13746.0 -36.3919 23168.4
 22 06 2015  11 28  -21.5047 18649.8 -13745.9 -36.3922 23168.1
 22 06 2015  11 29  -21.5059 18649.6 -13745.8 -36.3922 23168.0
 22 06 2015  11 30  -21.5068 18649.7 -13745.7 -36.3918 23168.0
 22 06 2015  11 31  -21.5072 18650.0 -13745.6 -36.3912 23168.2
 22 06 2015  11 32  -21.5063 18650.3 -13745.6 -36.3908 23168.4
 22 06 2015  11 33  -21.5051 18651.0 -13745.5 -36.3896 23168.9
 22 06 2015  11 34  -21.5041 18651.4 -13745.4 -36.3887 23169.2
 22 06 2015  11 35  -21.5032 18651.8 -13745.3 -36.3879 23169.4
 22 06 2015  11 36  -21.5024 18652.1 -13745.2 -36.3874 23169.6
 22 06 2015  11 37  -21.5020 18652.8 -13745.1 -36.3861 23170.1
 22 06 2015  11 38  -21.5021 18653.1 -13745.0 -36.3854 23170.3
 22 06 2015  11 39  -21.5023 18653.8 -13744.8 -36.3839 23170.8
 22 06 2015  11 40  -21.5016 18654.4 -13744.6 -36.3828 23171.2
 22 06 2015  11 41  -21.5013 18654.8 -13744.6 -36.3821 23171.4
 22 06 2015  11 42  -21.5013 18654.9 -13744.5 -36.3818 23171.4
 22 06 2015  11 43  -21.5018 18655.1 -13744.4 -36.3814 23171.5
 22 06 2015  11 44  -21.5016 18655.5 -13744.4 -36.3807 23171.8
 22 06 2015  11 45  -21.5013 18656.0 -13744.3 -36.3798 23172.2
 22 06 2015  11 46  -21.5002 18656.5 -13744.2 -36.3789 23172.6
 22 06 2015  11 47  -21.5005 18656.8 -13744.1 -36.3783 23172.7
 22 06 2015  11 48  -21.5011 18656.9 -13744.0 -36.3780 23172.8
 22 06 2015  11 49  -21.5011 18657.0 -13744.1 -36.3779 23172.9
 22 06 2015  11 50  -21.5004 18657.8 -13744.0 -36.3766 23173.5
 22 06 2015  11 51  -21.5000 18658.5 -13743.9 -36.3754 23174.0
 22 06 2015  11 52  -21.5001 18659.0 -13743.9 -36.3747 23174.4
 22 06 2015  11 53  -21.5006 18659.3 -13743.8 -36.3739 23174.6
 22 06 2015  11 54  -21.5015 18659.3 -13743.8 -36.3740 23174.5
 22 06 2015  11 55  -21.5020 18659.5 -13743.8 -36.3737 23174.7
 22 06 2015  11 56  -21.5030 18659.6 -13743.7 -36.3733 23174.7
 22 06 2015  11 57  -21.5039 18659.7 -13743.7 -36.3732 23174.8
 22 06 2015  11 58  -21.5043 18659.7 -13743.7 -36.3732 23174.9
 22 06 2015  11 59  -21.5046 18660.0 -13743.7 -36.3727 23175.1
 22 06 2015  12 00  -21.5048 18660.3 -13743.7 -36.3722 23175.4
 22 06 2015  12 01  -21.5058 18660.4 -13743.6 -36.3719 23175.4
 22 06 2015  12 02  -21.5066 18660.7 -13743.4 -36.3713 23175.5
 22 06 2015  12 03  -21.5088 18660.2 -13743.4 -36.3719 23175.1
 22 06 2015  12 04  -21.5110 18659.8 -13743.5 -36.3726 23174.8
 22 06 2015  12 05  -21.5110 18660.5 -13743.5 -36.3715 23175.4
 22 06 2015  12 06  -21.5108 18660.9 -13743.5 -36.3709 23175.7
 22 06 2015  12 07  -21.5106 18661.3 -13743.4 -36.3703 23176.0
 22 06 2015  12 08  -21.5112 18661.3 -13743.4 -36.3702 23176.0
 22 06 2015  12 09  -21.5122 18661.2 -13743.3 -36.3703 23175.8
 22 06 2015  12 10  -21.5122 18661.5 -13743.3 -36.3699 23176.1
 22 06 2015  12 11  -21.5117 18661.7 -13743.3 -36.3695 23176.3
 22 06 2015  12 12  -21.5116 18661.7 -13743.4 -36.3696 23176.3
 22 06 2015  12 13  -21.5121 18661.7 -13743.4 -36.3697 23176.3
 22 06 2015  12 14  -21.5132 18661.7 -13743.4 -36.3698 23176.3
 22 06 2015  12 15  -21.5139 18661.8 -13743.5 -36.3697 23176.4
 22 06 2015  12 16  -21.5151 18661.6 -13743.4 -36.3699 23176.3
 22 06 2015  12 17  -21.5165 18661.6 -13743.6 -36.3702 23176.3
 22 06 2015  12 18  -21.5175 18662.0 -13743.6 -36.3696 23176.7
 22 06 2015  12 19  -21.5187 18662.4 -13743.5 -36.3688 23176.9
 22 06 2015  12 20  -21.5201 18662.6 -13743.5 -36.3686 23177.0
 22 06 2015  12 21  -21.5213 18663.0 -13743.4 -36.3678 23177.3
 22 06 2015  12 22  -21.5216 18663.6 -13743.2 -36.3666 23177.7
 22 06 2015  12 23  -21.5216 18664.2 -13743.0 -36.3653 23178.1
 22 06 2015  12 24  -21.5225 18664.3 -13743.0 -36.3652 23178.1
 22 06 2015  12 25  -21.5226 18664.3 -13743.1 -36.3653 23178.2
 22 06 2015  12 26  -21.5234 18664.1 -13743.1 -36.3655 23178.0
 22 06 2015  12 27  -21.5239 18664.4 -13742.9 -36.3649 23178.2
 22 06 2015  12 28  -21.5245 18664.5 -13742.8 -36.3644 23178.1
 22 06 2015  12 29  -21.5258 18664.5 -13742.5 -36.3639 23178.0
 22 06 2015  12 30  -21.5263 18664.5 -13742.3 -36.3633 23177.9
 22 06 2015  12 31  -21.5260 18665.0 -13742.1 -36.3622 23178.2
 22 06 2015  12 32  -21.5269 18664.7 -13741.9 -36.3624 23177.8
 22 06 2015  12 33  -21.5277 18664.5 -13741.9 -36.3625 23177.6
 22 06 2015  12 34  -21.5299 18663.8 -13741.9 -36.3636 23177.0
 22 06 2015  12 35  -21.5319 18662.8 -13742.0 -36.3652 23176.3
 22 06 2015  12 36  -21.5338 18662.4 -13742.0 -36.3659 23176.0
 22 06 2015  12 37  -21.5346 18662.1 -13742.0 -36.3664 23175.8
 22 06 2015  12 38  -21.5348 18662.4 -13742.0 -36.3658 23176.0
 22 06 2015  12 39  -21.5352 18662.0 -13741.9 -36.3662 23175.6
 22 06 2015  12 40  -21.5355 18661.6 -13741.9 -36.3668 23175.3
 22 06 2015  12 41  -21.5360 18661.7 -13741.9 -36.3666 23175.4
 22 06 2015  12 42  -21.5382 18661.2 -13741.7 -36.3670 23174.9
 22 06 2015  12 43  -21.5387 18661.3 -13741.6 -36.3666 23174.9
 22 06 2015  12 44  -21.5380 18661.9 -13741.4 -36.3655 23175.3
 22 06 2015  12 45  -21.5362 18662.4 -13741.4 -36.3646 23175.7
 22 06 2015  12 46  -21.5345 18662.7 -13741.3 -36.3641 23175.8
 22 06 2015  12 47  -21.5326 18662.8 -13741.2 -36.3637 23175.9
 22 06 2015  12 48  -21.5326 18662.4 -13741.2 -36.3642 23175.5
 22 06 2015  12 49  -21.5339 18661.7 -13741.2 -36.3653 23175.0
 22 06 2015  12 50  -21.5363 18661.2 -13741.2 -36.3659 23174.6
 22 06 2015  12 51  -21.5394 18660.6 -13741.0 -36.3665 23174.0
 22 06 2015  12 52  -21.5419 18660.5 -13740.9 -36.3664 23173.8
 22 06 2015  12 53  -21.5424 18661.3 -13740.6 -36.3647 23174.3
 22 06 2015  12 54  -21.5412 18662.8 -13740.1 -36.3615 23175.2
 22 06 2015  12 55  -21.5407 18662.6 -13739.7 -36.3610 23174.8
 22 06 2015  12 56  -21.5412 18662.5 -13739.5 -36.3606 23174.6
 22 06 2015  12 57  -21.5434 18662.2 -13739.2 -36.3606 23174.1
 22 06 2015  12 58  -21.5437 18663.2 -13738.9 -36.3585 23174.8
 22 06 2015  12 59  -21.5429 18663.9 -13738.4 -36.3565 23175.1
 22 06 2015  13 00  -21.5413 18664.8 -13738.2 -36.3548 23175.6
 22 06 2015  13 01  -21.5383 18666.2 -13737.9 -36.3521 23176.6
 22 06 2015  13 02  -21.5376 18665.9 -13737.5 -36.3517 23176.2
 22 06 2015  13 03  -21.5374 18666.4 -13737.3 -36.3506 23176.5
 22 06 2015  13 04  -21.5368 18666.8 -13737.0 -36.3496 23176.6
 22 06 2015  13 05  -21.5377 18666.1 -13736.9 -36.3504 23176.0
 22 06 2015  13 06  -21.5373 18666.2 -13737.0 -36.3502 23176.1
 22 06 2015  13 07  -21.5368 18666.3 -13736.9 -36.3500 23176.1
 22 06 2015  13 08  -21.5381 18666.1 -13736.9 -36.3503 23175.9
 22 06 2015  13 09  -21.5364 18666.4 -13736.9 -36.3500 23176.2
 22 06 2015  13 10  -21.5345 18667.2 -13736.7 -36.3484 23176.7
 22 06 2015  13 11  -21.5326 18667.5 -13736.7 -36.3477 23177.0
 22 06 2015  13 12  -21.5310 18667.9 -13736.6 -36.3470 23177.3
 22 06 2015  13 13  -21.5296 18669.1 -13736.4 -36.3449 23178.1
 22 06 2015  13 14  -21.5296 18669.6 -13736.1 -36.3436 23178.4
 22 06 2015  13 15  -21.5280 18670.3 -13735.9 -36.3422 23178.8
 22 06 2015  13 16  -21.5274 18670.9 -13735.8 -36.3411 23179.1
 22 06 2015  13 17  -21.5274 18671.4 -13735.6 -36.3399 23179.4
 22 06 2015  13 18  -21.5275 18671.6 -13735.4 -36.3392 23179.5
 22 06 2015  13 19  -21.5266 18672.3 -13735.3 -36.3380 23180.0
 22 06 2015  13 20  -21.5264 18672.4 -13735.1 -36.3373 23180.0
 22 06 2015  13 21  -21.5264 18672.6 -13734.9 -36.3369 23180.0
 22 06 2015  13 22  -21.5269 18672.0 -13734.9 -36.3377 23179.6
 22 06 2015  13 23  -21.5280 18671.6 -13734.8 -36.3382 23179.2
 22 06 2015  13 24  -21.5291 18671.7 -13734.9 -36.3381 23179.3
 22 06 2015  13 25  -21.5314 18671.1 -13734.8 -36.3388 23178.8
 22 06 2015  13 26  -21.5334 18670.7 -13734.8 -36.3393 23178.5
 22 06 2015  13 27  -21.5334 18671.3 -13734.9 -36.3387 23178.9
 22 06 2015  13 28  -21.5344 18671.3 -13734.8 -36.3385 23179.0
 22 06 2015  13 29  -21.5359 18671.0 -13734.9 -36.3391 23178.7
 22 06 2015  13 30  -21.5358 18670.9 -13735.0 -36.3394 23178.7
 22 06 2015  13 31  -21.5360 18671.0 -13735.1 -36.3394 23178.9
 22 06 2015  13 32  -21.5358 18671.5 -13735.1 -36.3389 23179.3
 22 06 2015  13 33  -21.5348 18672.5 -13735.1 -36.3373 23180.1
 22 06 2015  13 34  -21.5358 18672.4 -13734.9 -36.3372 23179.9
 22 06 2015  13 35  -21.5349 18672.9 -13734.9 -36.3363 23180.3
 22 06 2015  13 36  -21.5343 18673.2 -13734.7 -36.3356 23180.4
 22 06 2015  13 37  -21.5354 18673.1 -13734.6 -36.3355 23180.3
 22 06 2015  13 38  -21.5354 18673.2 -13734.7 -36.3354 23180.4
 22 06 2015  13 39  -21.5354 18673.7 -13734.6 -36.3346 23180.7
 22 06 2015  13 40  -21.5359 18673.7 -13734.5 -36.3344 23180.7
 22 06 2015  13 41  -21.5365 18673.7 -13734.5 -36.3344 23180.6
 22 06 2015  13 42  -21.5370 18674.0 -13734.5 -36.3340 23180.9
 22 06 2015  13 43  -21.5382 18674.2 -13734.4 -36.3336 23181.0
 22 06 2015  13 44  -21.5386 18674.7 -13734.4 -36.3327 23181.4
 22 06 2015  13 45  -21.5398 18674.9 -13734.2 -36.3321 23181.5
 22 06 2015  13 46  -21.5403 18675.5 -13734.2 -36.3311 23181.9
 22 06 2015  13 47  -21.5400 18675.9 -13734.1 -36.3304 23182.2
 22 06 2015  13 48  -21.5414 18675.6 -13734.1 -36.3308 23182.0
 22 06 2015  13 49  -21.5428 18675.9 -13734.1 -36.3304 23182.2
 22 06 2015  13 50  -21.5421 18676.6 -13734.2 -36.3295 23182.9
 22 06 2015  13 51  -21.5432 18676.4 -13734.3 -36.3299 23182.7
 22 06 2015  13 52  -21.5429 18676.4 -13734.4 -36.3304 23182.8
 22 06 2015  13 53  -21.5427 18676.7 -13734.6 -36.3303 23183.2
 22 06 2015  13 54  -21.5413 18677.3 -13734.7 -36.3296 23183.7
 22 06 2015  13 55  -21.5388 18678.8 -13734.7 -36.3272 23184.9
 22 06 2015  13 56  -21.5366 18680.3 -13734.5 -36.3247 23186.0
 22 06 2015  13 57  -21.5342 18682.2 -13734.3 -36.3215 23187.4
 22 06 2015  13 58  -21.5320 18684.0 -13734.0 -36.3182 23188.7
 22 06 2015  13 59  -21.5321 18684.7 -13733.8 -36.3170 23189.1
 22 06 2015  14 00  -21.5336 18684.5 -13733.7 -36.3170 23188.9
 22 06 2015  14 01  -21.5338 18684.9 -13733.7 -36.3164 23189.2
 22 06 2015  14 02  -21.5321 18686.0 -13733.7 -36.3148 23190.1
 22 06 2015  14 03  -21.5318 18686.6 -13733.8 -36.3141 23190.6
 22 06 2015  14 04  -21.5323 18687.0 -13733.8 -36.3135 23191.0
 22 06 2015  14 05  -21.5317 18687.8 -13734.0 -36.3126 23191.7
 22 06 2015  14 06  -21.5309 18688.2 -13734.0 -36.3120 23192.1
 22 06 2015  14 07  -21.5289 18689.3 -13734.0 -36.3106 23192.9
 22 06 2015  14 08  -21.5277 18690.1 -13734.0 -36.3094 23193.6
 22 06 2015  14 09  -21.5265 18691.1 -13734.0 -36.3079 23194.4
 22 06 2015  14 10  -21.5277 18691.2 -13734.0 -36.3077 23194.4
 22 06 2015  14 11  -21.5290 18690.9 -13734.0 -36.3082 23194.2
 22 06 2015  14 12  -21.5287 18691.3 -13734.0 -36.3076 23194.6
 22 06 2015  14 13  -21.5293 18691.3 -13734.1 -36.3077 23194.6
 22 06 2015  14 14  -21.5312 18690.7 -13734.2 -36.3089 23194.2
 22 06 2015  14 15  -21.5312 18690.7 -13734.4 -36.3093 23194.3
 22 06 2015  14 16  -21.5313 18691.1 -13734.5 -36.3088 23194.7
 22 06 2015  14 17  -21.5321 18691.6 -13734.5 -36.3083 23195.1
 22 06 2015  14 18  -21.5343 18691.0 -13734.5 -36.3091 23194.7
 22 06 2015  14 19  -21.5352 18690.8 -13734.7 -36.3098 23194.6
 22 06 2015  14 20  -21.5342 18691.5 -13734.8 -36.3091 23195.2
 22 06 2015  14 21  -21.5350 18691.6 -13734.8 -36.3088 23195.3
 22 06 2015  14 22  -21.5350 18691.8 -13734.8 -36.3084 23195.4
 22 06 2015  14 23  -21.5348 18691.5 -13734.8 -36.3088 23195.2
 22 06 2015  14 24  -21.5351 18691.0 -13734.7 -36.3095 23194.8
 22 06 2015  14 25  -21.5365 18690.3 -13734.8 -36.3107 23194.3
 22 06 2015  14 26  -21.5366 18690.0 -13734.9 -36.3114 23194.1
 22 06 2015  14 27  -21.5380 18689.2 -13734.9 -36.3124 23193.4
 22 06 2015  14 28  -21.5381 18688.5 -13735.0 -36.3137 23192.9
 22 06 2015  14 29  -21.5386 18687.9 -13735.1 -36.3148 23192.4
 22 06 2015  14 30  -21.5410 18686.9 -13735.2 -36.3164 23191.7
 22 06 2015  14 31  -21.5420 18686.9 -13735.4 -36.3168 23191.8
 22 06 2015  14 32  -21.5423 18686.3 -13735.3 -36.3175 23191.3
 22 06 2015  14 33  -21.5444 18685.3 -13735.4 -36.3191 23190.5
 22 06 2015  14 34  -21.5448 18684.9 -13735.5 -36.3200 23190.3
 22 06 2015  14 35  -21.5451 18685.4 -13735.4 -36.3191 23190.6
 22 06 2015  14 36  -21.5458 18684.6 -13735.4 -36.3202 23189.9
 22 06 2015  14 37  -21.5480 18683.3 -13735.4 -36.3221 23189.0
 22 06 2015  14 38  -21.5468 18683.3 -13735.6 -36.3226 23189.1
 22 06 2015  14 39  -21.5474 18682.9 -13735.6 -36.3230 23188.7
 22 06 2015  14 40  -21.5484 18682.4 -13735.6 -36.3239 23188.3
 22 06 2015  14 41  -21.5495 18681.3 -13735.6 -36.3255 23187.5
 22 06 2015  14 42  -21.5499 18680.6 -13735.7 -36.3267 23187.0
 22 06 2015  14 43  -21.5523 18678.9 -13735.8 -36.3295 23185.6
 22 06 2015  14 44  -21.5562 18676.6 -13736.0 -36.3331 23183.9
 22 06 2015  14 45  -21.5595 18674.7 -13736.2 -36.3363 23182.5
 22 06 2015  14 46  -21.5622 18673.1 -13736.3 -36.3390 23181.3
 22 06 2015  14 47  -21.5656 18671.8 -13736.4 -36.3409 23180.3
 22 06 2015  14 48  -21.5671 18671.6 -13736.4 -36.3412 23180.1
 22 06 2015  14 49  -21.5703 18670.0 -13736.3 -36.3434 23178.7
 22 06 2015  14 50  -21.5734 18668.0 -13736.3 -36.3463 23177.2
 22 06 2015  14 51  -21.5746 18666.8 -13736.5 -36.3484 23176.3
 22 06 2015  14 52  -21.5750 18666.4 -13736.5 -36.3491 23176.0
 22 06 2015  14 53  -21.5761 18665.5 -13736.5 -36.3504 23175.3
 22 06 2015  14 54  -21.5762 18665.1 -13736.5 -36.3510 23174.9
 22 06 2015  14 55  -21.5750 18665.0 -13736.5 -36.3511 23174.9
 22 06 2015  14 56  -21.5740 18664.6 -13736.5 -36.3516 23174.5
 22 06 2015  14 57  -21.5741 18663.5 -13736.5 -36.3532 23173.7
 22 06 2015  14 58  -21.5750 18662.2 -13736.7 -36.3555 23172.7
 22 06 2015  14 59  -21.5760 18661.4 -13736.7 -36.3568 23172.1
 22 06 2015  15 00  -21.5788 18660.2 -13736.7 -36.3586 23171.1
 22 06 2015  15 01  -21.5803 18659.1 -13736.7 -36.3602 23170.2
 22 06 2015  15 02  -21.5815 18658.3 -13736.8 -36.3615 23169.7
 22 06 2015  15 03  -21.5813 18658.4 -13736.9 -36.3615 23169.8
 22 06 2015  15 04  -21.5807 18658.6 -13736.7 -36.3609 23169.8
 22 06 2015  15 05  -21.5803 18658.6 -13736.6 -36.3605 23169.8
 22 06 2015  15 06  -21.5794 18658.3 -13736.5 -36.3609 23169.5
 22 06 2015  15 07  -21.5781 18658.3 -13736.6 -36.3611 23169.5
 22 06 2015  15 08  -21.5741 18659.6 -13736.5 -36.3590 23170.5
 22 06 2015  15 09  -21.5708 18660.8 -13736.3 -36.3568 23171.3
 22 06 2015  15 10  -21.5690 18661.5 -13736.1 -36.3554 23171.7
 22 06 2015  15 11  -21.5676 18661.9 -13736.1 -36.3548 23172.2
 22 06 2015  15 12  -21.5653 18663.0 -13736.0 -36.3531 23172.9
 22 06 2015  15 13  -21.5635 18663.9 -13735.8 -36.3514 23173.5
 22 06 2015  15 14  -21.5626 18664.5 -13735.7 -36.3502 23174.0
 22 06 2015  15 15  -21.5625 18665.1 -13735.6 -36.3491 23174.4
 22 06 2015  15 16  -21.5614 18666.0 -13735.5 -36.3475 23175.1
 22 06 2015  15 17  -21.5591 18667.0 -13735.3 -36.3458 23175.7
 22 06 2015  15 18  -21.5574 18667.7 -13735.0 -36.3441 23176.2
 22 06 2015  15 19  -21.5548 18669.1 -13734.7 -36.3415 23177.1
 22 06 2015  15 20  -21.5533 18670.7 -13734.3 -36.3385 23178.1
 22 06 2015  15 21  -21.5526 18671.5 -13734.1 -36.3368 23178.6
 22 06 2015  15 22  -21.5517 18672.1 -13733.8 -36.3353 23179.0
 22 06 2015  15 23  -21.5488 18673.3 -13733.6 -36.3333 23179.8
 22 06 2015  15 24  -21.5466 18674.5 -13733.3 -36.3309 23180.6
 22 06 2015  15 25  -21.5464 18674.7 -13733.0 -36.3299 23180.6
 22 06 2015  15 26  -21.5449 18675.4 -13732.8 -36.3286 23181.0
 22 06 2015  15 27  -21.5444 18675.9 -13732.6 -36.3273 23181.3
 22 06 2015  15 28  -21.5443 18675.6 -13732.4 -36.3274 23181.0
 22 06 2015  15 29  -21.5444 18675.3 -13732.3 -36.3276 23180.7
 22 06 2015  15 30  -21.5445 18674.8 -13732.2 -36.3282 23180.2
 22 06 2015  15 31  -21.5448 18673.7 -13732.3 -36.3301 23179.4
 22 06 2015  15 32  -21.5454 18672.6 -13732.5 -36.3320 23178.6
 22 06 2015  15 33  -21.5461 18672.1 -13732.6 -36.3330 23178.2
 22 06 2015  15 34  -21.5487 18670.8 -13732.7 -36.3350 23177.3
 22 06 2015  15 35  -21.5512 18669.3 -13732.9 -36.3377 23176.2
 22 06 2015  15 36  -21.5523 18669.1 -13733.1 -36.3384 23176.1
 22 06 2015  15 37  -21.5531 18668.8 -13733.1 -36.3389 23175.9
 22 06 2015  15 38  -21.5549 18668.0 -13733.1 -36.3401 23175.2
 22 06 2015  15 39  -21.5559 18667.7 -13733.2 -36.3406 23175.0
 22 06 2015  15 40  -21.5570 18667.7 -13733.2 -36.3405 23175.1
 22 06 2015  15 41  -21.5572 18667.8 -13733.1 -36.3402 23175.1
 22 06 2015  15 42  -21.5589 18667.4 -13733.0 -36.3407 23174.7
 22 06 2015  15 43  -21.5605 18666.8 -13733.1 -36.3416 23174.3
 22 06 2015  15 44  -21.5618 18666.4 -13733.0 -36.3421 23173.9
 22 06 2015  15 45  -21.5626 18666.0 -13733.1 -36.3429 23173.6
 22 06 2015  15 46  -21.5640 18665.6 -13733.1 -36.3435 23173.3
 22 06 2015  15 47  -21.5643 18665.2 -13733.1 -36.3442 23173.0
 22 06 2015  15 48  -21.5645 18664.7 -13733.1 -36.3448 23172.6
 22 06 2015  15 49  -21.5646 18664.5 -13733.2 -36.3453 23172.5
 22 06 2015  15 50  -21.5642 18664.6 -13733.3 -36.3453 23172.6
 22 06 2015  15 51  -21.5648 18664.2 -13733.3 -36.3459 23172.3
 22 06 2015  15 52  -21.5656 18663.2 -13733.4 -36.3476 23171.5
 22 06 2015  15 53  -21.5652 18662.7 -13733.5 -36.3486 23171.2
 22 06 2015  15 54  -21.5652 18662.2 -13733.6 -36.3495 23170.9
 22 06 2015  15 55  -21.5675 18661.9 -13733.7 -36.3501 23170.6
 22 06 2015  15 56  -21.5699 18661.3 -13733.6 -36.3506 23170.1
 22 06 2015  15 57  -21.5714 18660.4 -13733.6 -36.3520 23169.4
 22 06 2015  15 58  -21.5714 18660.0 -13733.7 -36.3529 23169.1
 22 06 2015  15 59  -21.5721 18659.5 -13733.7 -36.3536 23168.7
 22 06 2015  16 00  -21.5728 18659.1 -13733.7 -36.3541 23168.4
 22 06 2015  16 01  -21.5752 18658.0 -13733.6 -36.3557 23167.5
 22 06 2015  16 02  -21.5778 18656.7 -13733.7 -36.3577 23166.5
 22 06 2015  16 03  -21.5780 18656.3 -13733.8 -36.3584 23166.3
 22 06 2015  16 04  -21.5790 18655.6 -13733.8 -36.3596 23165.7
 22 06 2015  16 05  -21.5801 18654.5 -13733.8 -36.3610 23164.8
 22 06 2015  16 06  -21.5823 18653.1 -13733.8 -36.3631 23163.7
 22 06 2015  16 07  -21.5832 18652.4 -13733.8 -36.3643 23163.1
 22 06 2015  16 08  -21.5829 18651.7 -13733.8 -36.3653 23162.5
 22 06 2015  16 09  -21.5837 18651.0 -13733.9 -36.3665 23162.1
 22 06 2015  16 10  -21.5847 18650.7 -13733.9 -36.3668 23161.8
 22 06 2015  16 11  -21.5869 18649.5 -13733.9 -36.3686 23160.9
 22 06 2015  16 12  -21.5877 18648.3 -13734.1 -36.3708 23160.0
 22 06 2015  16 13  -21.5868 18647.7 -13734.3 -36.3720 23159.6
 22 06 2015  16 14  -21.5867 18646.7 -13734.4 -36.3738 23158.9
 22 06 2015  16 15  -21.5882 18645.5 -13734.6 -36.3758 23158.0
 22 06 2015  16 16  -21.5907 18643.9 -13734.7 -36.3785 23156.8
 22 06 2015  16 17  -21.5910 18643.4 -13734.8 -36.3795 23156.5
 22 06 2015  16 18  -21.5918 18642.5 -13735.0 -36.3810 23155.8
 22 06 2015  16 19  -21.5923 18642.3 -13735.1 -36.3816 23155.7
 22 06 2015  16 20  -21.5924 18642.2 -13735.0 -36.3815 23155.6
 22 06 2015  16 21  -21.5933 18641.1 -13735.0 -36.3832 23154.7
 22 06 2015  16 22  -21.5930 18640.2 -13735.2 -36.3849 23154.1
 22 06 2015  16 23  -21.5918 18640.1 -13735.3 -36.3853 23154.1
 22 06 2015  16 24  -21.5909 18639.8 -13735.5 -36.3860 23154.0
 22 06 2015  16 25  -21.5915 18638.8 -13735.6 -36.3877 23153.2
 22 06 2015  16 26  -21.5932 18637.4 -13735.8 -36.3901 23152.2
 22 06 2015  16 27  -21.5942 18636.1 -13735.9 -36.3923 23151.2
 22 06 2015  16 28  -21.5940 18636.1 -13736.1 -36.3926 23151.3
 22 06 2015  16 29  -21.5928 18636.2 -13736.1 -36.3926 23151.4
 22 06 2015  16 30  -21.5932 18635.6 -13736.1 -36.3935 23151.0
 22 06 2015  16 31  -21.5932 18635.0 -13736.0 -36.3941 23150.5
 22 06 2015  16 32  -21.5929 18634.0 -13736.0 -36.3956 23149.6
 22 06 2015  16 33  -21.5919 18634.1 -13735.9 -36.3953 23149.6
 22 06 2015  16 34  -21.5917 18633.4 -13735.8 -36.3961 23149.0
 22 06 2015  16 35  -21.5944 18631.4 -13735.7 -36.3989 23147.3
 22 06 2015  16 36  -21.5963 18629.8 -13735.8 -36.4013 23146.1
 22 06 2015  16 37  -21.5979 18629.3 -13735.7 -36.4019 23145.6
 22 06 2015  16 38  -21.5982 18628.5 -13735.6 -36.4028 23145.0
 22 06 2015  16 39  -21.5981 18627.4 -13735.6 -36.4044 23144.1
 22 06 2015  16 40  -21.5985 18626.6 -13735.7 -36.4058 23143.5
 22 06 2015  16 41  -21.5975 18626.4 -13735.6 -36.4060 23143.2
 22 06 2015  16 42  -21.5969 18625.4 -13735.6 -36.4076 23142.4
 22 06 2015  16 43  -21.5979 18624.1 -13735.7 -36.4096 23141.5
 22 06 2015  16 44  -21.5995 18623.0 -13735.9 -36.4115 23140.7
 22 06 2015  16 45  -21.6008 18622.1 -13736.0 -36.4131 23140.0
 22 06 2015  16 46  -21.6035 18621.1 -13736.1 -36.4148 23139.2
 22 06 2015  16 47  -21.6048 18620.8 -13736.2 -36.4153 23139.1
 22 06 2015  16 48  -21.6053 18620.2 -13736.2 -36.4163 23138.6
 22 06 2015  16 49  -21.6077 18618.8 -13736.4 -36.4186 23137.6
 22 06 2015  16 50  -21.6110 18617.5 -13736.5 -36.4208 23136.6
 22 06 2015  16 51  -21.6124 18617.4 -13736.5 -36.4211 23136.5
 22 06 2015  16 52  -21.6120 18617.1 -13736.5 -36.4215 23136.3
 22 06 2015  16 53  -21.6116 18616.4 -13736.6 -36.4227 23135.8
 22 06 2015  16 54  -21.6116 18615.5 -13736.8 -36.4243 23135.2
 22 06 2015  16 55  -21.6114 18614.9 -13736.9 -36.4255 23134.7
 22 06 2015  16 56  -21.6109 18614.8 -13737.0 -36.4258 23134.7
 22 06 2015  16 57  -21.6103 18614.5 -13737.1 -36.4265 23134.6
 22 06 2015  16 58  -21.6105 18614.1 -13737.2 -36.4272 23134.2
 22 06 2015  16 59  -21.6111 18613.7 -13737.2 -36.4277 23134.0
 22 06 2015  17 00  -21.6115 18613.5 -13737.3 -36.4282 23133.9
 22 06 2015  17 01  -21.6103 18613.7 -13737.3 -36.4281 23134.0
 22 06 2015  17 02  -21.6084 18614.2 -13737.2 -36.4271 23134.4
 22 06 2015  17 03  -21.6062 18614.6 -13737.2 -36.4265 23134.6
 22 06 2015  17 04  -21.6034 18615.6 -13737.1 -36.4248 23135.4
 22 06 2015  17 05  -21.6009 18616.2 -13737.1 -36.4239 23135.9
 22 06 2015  17 06  -21.5972 18617.0 -13737.1 -36.4227 23136.6
 22 06 2015  17 07  -21.5932 18618.1 -13737.0 -36.4210 23137.4
 22 06 2015  17 08  -21.5900 18618.7 -13737.0 -36.4200 23137.9
 22 06 2015  17 09  -21.5871 18618.8 -13737.0 -36.4199 23138.0
 22 06 2015  17 10  -21.5848 18618.8 -13737.2 -36.4202 23138.1
 22 06 2015  17 11  -21.5831 18619.0 -13737.3 -36.4203 23138.3
 22 06 2015  17 12  -21.5813 18619.1 -13737.3 -36.4202 23138.4
 22 06 2015  17 13  -21.5798 18619.2 -13737.4 -36.4202 23138.5
 22 06 2015  17 14  -21.5782 18619.4 -13737.5 -36.4200 23138.7
 22 06 2015  17 15  -21.5768 18619.8 -13737.6 -36.4196 23139.1
 22 06 2015  17 16  -21.5757 18619.9 -13737.6 -36.4195 23139.2
 22 06 2015  17 17  -21.5754 18619.7 -13737.7 -36.4200 23139.1
 22 06 2015  17 18  -21.5753 18619.6 -13737.7 -36.4201 23139.0
 22 06 2015  17 19  -21.5743 18620.3 -13737.6 -36.4190 23139.5
 22 06 2015  17 20  -21.5733 18621.1 -13737.5 -36.4177 23140.1
 22 06 2015  17 21  -21.5728 18621.5 -13737.4 -36.4167 23140.4
 22 06 2015  17 22  -21.5716 18621.7 -13737.4 -36.4165 23140.5
 22 06 2015  17 23  -21.5693 18622.1 -13737.4 -36.4158 23140.9
 22 06 2015  17 24  -21.5677 18622.3 -13737.4 -36.4156 23141.0
 22 06 2015  17 25  -21.5667 18622.5 -13737.3 -36.4150 23141.1
 22 06 2015  17 26  -21.5667 18622.6 -13737.2 -36.4148 23141.1
 22 06 2015  17 27  -21.5668 18622.6 -13737.2 -36.4147 23141.2
 22 06 2015  17 28  -21.5670 18622.5 -13737.2 -36.4150 23141.0
 22 06 2015  17 29  -21.5677 18621.9 -13737.2 -36.4158 23140.6
 22 06 2015  17 30  -21.5684 18621.3 -13737.3 -36.4169 23140.1
 22 06 2015  17 31  -21.5684 18620.5 -13737.6 -36.4185 23139.7
 22 06 2015  17 32  -21.5683 18619.6 -13737.8 -36.4202 23139.1
 22 06 2015  17 33  -21.5677 18619.5 -13737.9 -36.4207 23139.1
 22 06 2015  17 34  -21.5673 18619.8 -13738.0 -36.4205 23139.4
 22 06 2015  17 35  -21.5678 18620.5 -13737.9 -36.4193 23139.9
 22 06 2015  17 36  -21.5681 18621.1 -13737.9 -36.4184 23140.4
 22 06 2015  17 37  -21.5677 18622.0 -13737.9 -36.4171 23141.0
 22 06 2015  17 38  -21.5659 18623.1 -13738.0 -36.4155 23142.0
 22 06 2015  17 39  -21.5635 18624.3 -13737.9 -36.4137 23142.9
 22 06 2015  17 40  -21.5618 18625.8 -13737.8 -36.4111 23144.1
 22 06 2015  17 41  -21.5604 18626.6 -13737.7 -36.4099 23144.7
 22 06 2015  17 42  -21.5604 18627.2 -13737.7 -36.4089 23145.1
 22 06 2015  17 43  -21.5587 18628.2 -13737.6 -36.4074 23145.8
 22 06 2015  17 44  -21.5578 18629.2 -13737.6 -36.4058 23146.7
 22 06 2015  17 45  -21.5573 18630.0 -13737.5 -36.4045 23147.3
 22 06 2015  17 46  -21.5566 18630.5 -13737.5 -36.4039 23147.7
 22 06 2015  17 47  -21.5554 18630.5 -13737.6 -36.4038 23147.7
 22 06 2015  17 48  -21.5557 18630.5 -13737.6 -36.4040 23147.7
 22 06 2015  17 49  -21.5570 18629.9 -13737.7 -36.4050 23147.3
 22 06 2015  17 50  -21.5579 18629.3 -13737.8 -36.4061 23146.8
 22 06 2015  17 51  -21.5583 18629.0 -13737.8 -36.4064 23146.6
 22 06 2015  17 52  -21.5597 18628.9 -13737.7 -36.4066 23146.5
 22 06 2015  17 53  -21.5608 18628.2 -13737.5 -36.4072 23145.8
 22 06 2015  17 54  -21.5619 18628.5 -13737.5 -36.4068 23146.0
 22 06 2015  17 55  -21.5619 18628.7 -13737.4 -36.4060 23146.2
 22 06 2015  17 56  -21.5619 18629.2 -13737.2 -36.4051 23146.4
 22 06 2015  17 57  -21.5623 18629.0 -13737.0 -36.4050 23146.2
 22 06 2015  17 58  -21.5616 18628.9 -13736.8 -36.4046 23146.0
 22 06 2015  17 59  -21.5607 18628.4 -13736.7 -36.4052 23145.5
 22 06 2015  18 00  -21.5609 18627.0 -13736.7 -36.4073 23144.4
 22 06 2015  18 01  -21.5617 18625.8 -13736.8 -36.4094 23143.5
 22 06 2015  18 02  -21.5625 18624.8 -13737.0 -36.4111 23142.8
 22 06 2015  18 03  -21.5629 18624.3 -13737.2 -36.4122 23142.5
 22 06 2015  18 04  -21.5622 18624.6 -13737.3 -36.4121 23142.8
 22 06 2015  18 05  -21.5630 18624.3 -13737.5 -36.4128 23142.6
 22 06 2015  18 06  -21.5628 18624.4 -13737.7 -36.4131 23142.9
 22 06 2015  18 07  -21.5632 18624.3 -13737.8 -36.4135 23142.8
 22 06 2015  18 08  -21.5632 18624.7 -13737.7 -36.4127 23143.1
 22 06 2015  18 09  -21.5623 18625.5 -13737.7 -36.4114 23143.8
 22 06 2015  18 10  -21.5620 18626.1 -13737.4 -36.4101 23144.1
 22 06 2015  18 11  -21.5623 18626.0 -13737.3 -36.4099 23143.9
 22 06 2015  18 12  -21.5633 18625.9 -13737.2 -36.4098 23143.8
 22 06 2015  18 13  -21.5641 18625.4 -13737.2 -36.4107 23143.4
 22 06 2015  18 14  -21.5648 18624.9 -13737.2 -36.4112 23143.0
 22 06 2015  18 15  -21.5663 18624.0 -13737.2 -36.4125 23142.3
 22 06 2015  18 16  -21.5676 18623.5 -13737.1 -36.4132 23141.8
 22 06 2015  18 17  -21.5715 18622.5 -13737.2 -36.4150 23141.0
 22 06 2015  18 18  -21.5724 18621.2 -13737.4 -36.4171 23140.1
 22 06 2015  18 19  -21.5734 18619.9 -13737.5 -36.4195 23139.1
 22 06 2015  18 20  -21.5707 18619.2 -13737.6 -36.4206 23138.7
 22 06 2015  18 21  -21.5720 18618.0 -13737.8 -36.4227 23137.8
 22 06 2015  18 22  -21.5745 18616.7 -13738.1 -36.4252 23136.9
 22 06 2015  18 23  -21.5772 18615.1 -13738.4 -36.4281 23135.8
 22 06 2015  18 24  -21.5799 18613.6 -13738.8 -36.4312 23134.8
 22 06 2015  18 25  -21.5802 18612.9 -13739.2 -36.4330 23134.5
 22 06 2015  18 26  -21.5824 18611.3 -13739.6 -36.4362 23133.5
 22 06 2015  18 27  -21.5851 18609.8 -13740.1 -36.4393 23132.5
 22 06 2015  18 28  -21.5871 18609.2 -13740.4 -36.4409 23132.2
 22 06 2015  18 29  -21.5893 18608.7 -13740.8 -36.4422 23132.1
 22 06 2015  18 30  -21.5909 18608.5 -13741.0 -36.4430 23132.0
 22 06 2015  18 31  -21.5924 18607.9 -13741.2 -36.4443 23131.7
 22 06 2015  18 32  -21.5949 18607.9 -13741.5 -36.4449 23131.8
 22 06 2015  18 33  -21.5965 18612.2 -13741.4 -36.4384 23135.2
 22 06 2015  18 34  -21.5824 18653.1 -13738.1 -36.3717 23166.3
 22 06 2015  18 35  -21.5665 18680.3 -13730.4 -36.3165 23183.6
 22 06 2015  18 36  -21.5916 18681.1 -13726.2 -36.3070 23181.7
 22 06 2015  18 37  -21.5690 18688.3 -13724.6 -36.2933 23186.6
 22 06 2015  18 38  -21.5747 18686.0 -13724.0 -36.2955 23184.3
 22 06 2015  18 39  -21.5834 18686.1 -13723.7 -36.2948 23184.2
 22 06 2015  18 40  -21.5873 18689.4 -13723.3 -36.2891 23186.7
 22 06 2015  18 41  -21.5871 18695.7 -13722.7 -36.2787 23191.4
 22 06 2015  18 42  -21.5950 18698.5 -13721.3 -36.2717 23192.8
 22 06 2015  18 43  -21.6045 18698.6 -13720.9 -36.2709 23192.7
 22 06 2015  18 44  -21.6054 18697.4 -13720.4 -36.2717 23191.4
 22 06 2015  18 45  -21.6174 18696.6 -13720.7 -36.2734 23191.0
 22 06 2015  18 46  -21.6215 18698.8 -13720.5 -36.2698 23192.6
 22 06 2015  18 47  -21.6309 18698.6 -13720.4 -36.2699 23192.4
 22 06 2015  18 48  -21.6419 18697.0 -13720.3 -36.2721 23191.1
 22 06 2015  18 49  -21.6460 18696.2 -13720.8 -36.2742 23190.6
 22 06 2015  18 50  -21.6548 18694.2 -13721.1 -36.2777 23189.2
 22 06 2015  18 51  -21.6622 18694.2 -13721.4 -36.2783 23189.4
 22 06 2015  18 52  -21.6674 18697.8 -13721.0 -36.2723 23192.1
 22 06 2015  18 53  -21.6720 18696.9 -13720.8 -36.2731 23191.3
 22 06 2015  18 54  -21.6721 18698.0 -13720.9 -36.2717 23192.2
 22 06 2015  18 55  -21.6689 18697.3 -13721.0 -36.2730 23191.7
 22 06 2015  18 56  -21.6767 18692.3 -13721.5 -36.2813 23188.0
 22 06 2015  18 57  -21.6779 18689.0 -13722.8 -36.2887 23186.1
 22 06 2015  18 58  -21.6797 18685.8 -13723.6 -36.2949 23184.0
 22 06 2015  18 59  -21.6832 18684.8 -13724.5 -36.2982 23183.7
 22 06 2015  19 00  -21.6805 18688.4 -13724.9 -36.2937 23186.8
 22 06 2015  19 01  -21.6782 18690.2 -13724.2 -36.2896 23187.9
 22 06 2015  19 02  -21.6943 18678.5 -13725.2 -36.3090 23179.0
 22 06 2015  19 03  -21.6927 18677.9 -13726.9 -36.3131 23179.6
 22 06 2015  19 04  -21.6849 18685.0 -13727.2 -36.3033 23185.4
 22 06 2015  19 05  -21.6886 18686.1 -13726.3 -36.3000 23185.8
 22 06 2015  19 06  -21.6918 18686.5 -13726.1 -36.2988 23186.0
 22 06 2015  19 07  -21.6884 18683.7 -13726.5 -36.3038 23184.0
 22 06 2015  19 08  -21.6915 18680.5 -13727.0 -36.3095 23181.7
 22 06 2015  19 09  -21.6974 18675.7 -13727.9 -36.3183 23178.4
 22 06 2015  19 10  -21.6979 18673.9 -13728.7 -36.3224 23177.4
 22 06 2015  19 11  -21.6989 18674.5 -13729.1 -36.3224 23178.1
 22 06 2015  19 12  -21.7015 18671.0 -13729.2 -36.3278 23175.3
 22 06 2015  19 13  -21.7046 18666.8 -13730.4 -36.3364 23172.7
 22 06 2015  19 14  -21.6983 18666.0 -13731.1 -36.3389 23172.5
 22 06 2015  19 15  -21.6974 18664.0 -13731.9 -36.3434 23171.3
 22 06 2015  19 16  -21.6952 18661.7 -13732.4 -36.3479 23169.7
 22 06 2015  19 17  -21.6944 18657.0 -13733.6 -36.3571 23166.7
 22 06 2015  19 18  -21.6963 18648.2 -13735.1 -36.3730 23160.4
 22 06 2015  19 19  -21.7039 18641.7 -13736.9 -36.3861 23156.4
 22 06 2015  19 20  -21.7088 18635.8 -13738.5 -36.3979 23152.5
 22 06 2015  19 21  -21.7154 18631.8 -13739.6 -36.4059 23150.0
 22 06 2015  19 22  -21.7210 18631.0 -13740.1 -36.4083 23149.6
 22 06 2015  19 23  -21.7305 18628.6 -13740.2 -36.4119 23147.7
 22 06 2015  19 24  -21.7365 18627.6 -13740.2 -36.4134 23147.0
 22 06 2015  19 25  -21.7445 18622.8 -13740.5 -36.4211 23143.2
 22 06 2015  19 26  -21.7515 18621.1 -13740.7 -36.4239 23142.0
 22 06 2015  19 27  -21.7590 18616.4 -13741.1 -36.4316 23138.4
 22 06 2015  19 28  -21.7621 18616.0 -13741.4 -36.4328 23138.3
 22 06 2015  19 29  -21.7665 18616.6 -13741.2 -36.4316 23138.6
 22 06 2015  19 30  -21.7745 18616.5 -13740.6 -36.4305 23138.2
 22 06 2015  19 31  -21.7812 18617.6 -13740.0 -36.4276 23138.8
 22 06 2015  19 32  -21.7881 18617.4 -13739.3 -36.4266 23138.2
 22 06 2015  19 33  -21.7964 18618.1 -13738.6 -36.4242 23138.3
 22 06 2015  19 34  -21.8018 18614.6 -13738.2 -36.4286 23135.3
 22 06 2015  19 35  -21.8059 18610.1 -13738.6 -36.4361 23131.9
 22 06 2015  19 36  -21.8102 18606.1 -13739.2 -36.4429 23129.1
 22 06 2015  19 37  -21.8146 18604.6 -13739.6 -36.4460 23128.1
 22 06 2015  19 38  -21.8187 18602.9 -13739.7 -36.4487 23126.7
 22 06 2015  19 39  -21.8240 18601.4 -13739.9 -36.4513 23125.6
 22 06 2015  19 40  -21.8274 18600.3 -13739.8 -36.4527 23124.8
 22 06 2015  19 41  -21.8330 18598.6 -13739.7 -36.4551 23123.3
 22 06 2015  19 42  -21.8408 18593.7 -13739.8 -36.4624 23119.4
 22 06 2015  19 43  -21.8474 18585.1 -13740.9 -36.4774 23113.1
 22 06 2015  19 44  -21.8531 18580.2 -13742.1 -36.4869 23109.9
 22 06 2015  19 45  -21.8613 18574.8 -13742.7 -36.4961 23105.9
 22 06 2015  19 46  -21.8694 18568.5 -13743.6 -36.5072 23101.5
 22 06 2015  19 47  -21.8718 18565.4 -13744.4 -36.5133 23099.3
 22 06 2015  19 48  -21.8738 18561.0 -13745.1 -36.5211 23096.3
 22 06 2015  19 49  -21.8767 18554.5 -13745.9 -36.5324 23091.6
 22 06 2015  19 50  -21.8750 18546.2 -13747.6 -36.5480 23085.9
 22 06 2015  19 51  -21.8701 18538.6 -13749.4 -36.5629 23080.9
 22 06 2015  19 52  -21.8650 18530.6 -13751.6 -36.5791 23075.8
 22 06 2015  19 53  -21.8620 18523.3 -13753.7 -36.5941 23071.1
 22 06 2015  19 54  -21.8532 18515.6 -13756.0 -36.6102 23066.3
 22 06 2015  19 55  -21.8461 18507.3 -13758.5 -36.6274 23061.2
 22 06 2015  19 56  -21.8369 18500.2 -13761.2 -36.6433 23057.0
 22 06 2015  19 57  -21.8260 18495.8 -13763.4 -36.6542 23054.8
 22 06 2015  19 58  -21.8180 18492.4 -13765.1 -36.6627 23053.2
 22 06 2015  19 59  -21.8101 18487.5 -13766.8 -36.6732 23050.2
 22 06 2015  20 00  -21.8027 18482.2 -13768.5 -36.6845 23047.0
 22 06 2015  20 01  -21.7931 18477.7 -13770.3 -36.6948 23044.4
 22 06 2015  20 02  -21.7821 18473.0 -13771.8 -36.7048 23041.6
 22 06 2015  20 03  -21.7739 18468.3 -13773.5 -36.7151 23038.8
 22 06 2015  20 04  -21.7627 18465.3 -13774.9 -36.7223 23037.3
 22 06 2015  20 05  -21.7472 18463.3 -13776.3 -36.7282 23036.4
 22 06 2015  20 06  -21.7329 18459.9 -13777.8 -36.7361 23034.7
 22 06 2015  20 07  -21.7158 18457.9 -13779.2 -36.7419 23033.9
 22 06 2015  20 08  -21.7027 18455.5 -13780.3 -36.7478 23032.7
 22 06 2015  20 09  -21.6915 18452.3 -13781.5 -36.7551 23030.8
 22 06 2015  20 10  -21.6858 18448.5 -13782.6 -36.7627 23028.4
 22 06 2015  20 11  -21.6762 18445.8 -13783.7 -36.7690 23026.9
 22 06 2015  20 12  -21.6678 18444.8 -13784.6 -36.7723 23026.6
 22 06 2015  20 13  -21.6624 18442.3 -13785.3 -36.7774 23025.0
 22 06 2015  20 14  -21.6554 18442.1 -13785.9 -36.7789 23025.3
 22 06 2015  20 15  -21.6474 18441.3 -13786.3 -36.7808 23024.8
 22 06 2015  20 16  -21.6453 18440.9 -13786.6 -36.7819 23024.7
 22 06 2015  20 17  -21.6473 18440.1 -13786.5 -36.7830 23024.0
 22 06 2015  20 18  -21.6465 18439.2 -13786.6 -36.7846 23023.3
 22 06 2015  20 19  -21.6492 18438.9 -13786.5 -36.7849 23023.1
 22 06 2015  20 20  -21.6513 18439.4 -13786.2 -36.7836 23023.2
 22 06 2015  20 21  -21.6578 18440.1 -13785.7 -36.7815 23023.6
 22 06 2015  20 22  -21.6582 18441.7 -13785.2 -36.7781 23024.5
 22 06 2015  20 23  -21.6542 18442.4 -13784.9 -36.7765 23024.9
 22 06 2015  20 24  -21.6512 18442.4 -13784.9 -36.7764 23024.9
 22 06 2015  20 25  -21.6518 18442.3 -13784.7 -36.7763 23024.7
 22 06 2015  20 26  -21.6556 18441.8 -13784.5 -36.7765 23024.2
 22 06 2015  20 27  -21.6598 18441.3 -13784.2 -36.7767 23023.6
 22 06 2015  20 28  -21.6594 18442.7 -13783.9 -36.7740 23024.6
 22 06 2015  20 29  -21.6540 18444.5 -13783.6 -36.7708 23025.8
 22 06 2015  20 30  -21.6482 18445.9 -13783.3 -36.7680 23026.7
 22 06 2015  20 31  -21.6509 18445.6 -13782.8 -36.7674 23026.2
 22 06 2015  20 32  -21.6580 18444.4 -13782.5 -36.7687 23025.1
 22 06 2015  20 33  -21.6594 18443.8 -13782.6 -36.7697 23024.6
 22 06 2015  20 34  -21.6557 18444.6 -13782.7 -36.7687 23025.3
 22 06 2015  20 35  -21.6489 18445.4 -13782.8 -36.7677 23026.1
 22 06 2015  20 36  -21.6458 18445.9 -13782.8 -36.7669 23026.4
 22 06 2015  20 37  -21.6467 18447.5 -13782.5 -36.7640 23027.5
 22 06 2015  20 38  -21.6507 18448.2 -13781.9 -36.7620 23027.7
 22 06 2015  20 39  -21.6564 18447.7 -13781.6 -36.7619 23027.1
 22 06 2015  20 40  -21.6649 18446.7 -13781.2 -36.7628 23026.1
 22 06 2015  20 41  -21.6735 18446.9 -13780.8 -36.7616 23026.1
 22 06 2015  20 42  -21.6782 18446.7 -13780.4 -36.7610 23025.6
 22 06 2015  20 43  -21.6871 18444.5 -13780.2 -36.7639 23023.8
 22 06 2015  20 44  -21.6949 18445.9 -13779.8 -36.7610 23024.6
 22 06 2015  20 45  -21.6966 18448.7 -13779.0 -36.7552 23026.4
 22 06 2015  20 46  -21.6993 18449.8 -13778.2 -36.7520 23026.8
 22 06 2015  20 47  -21.7052 18450.0 -13777.6 -36.7505 23026.6
 22 06 2015  20 48  -21.7103 18451.3 -13776.9 -36.7472 23027.2
 22 06 2015  20 49  -21.7139 18452.0 -13776.3 -36.7450 23027.4
 22 06 2015  20 50  -21.7140 18454.2 -13775.7 -36.7405 23028.9
 22 06 2015  20 51  -21.7134 18455.0 -13775.2 -36.7383 23029.2
 22 06 2015  20 52  -21.7117 18458.0 -13774.6 -36.7327 23031.2
 22 06 2015  20 53  -21.7094 18461.4 -13773.9 -36.7262 23033.6
 22 06 2015  20 54  -21.7073 18464.0 -13773.0 -36.7207 23035.1
 22 06 2015  20 55  -21.7068 18466.5 -13772.4 -36.7155 23036.7
 22 06 2015  20 56  -21.7044 18469.8 -13771.6 -36.7092 23038.9
 22 06 2015  20 57  -21.7018 18473.4 -13770.7 -36.7021 23041.2
 22 06 2015  20 58  -21.7001 18476.0 -13770.0 -36.6967 23042.9
 22 06 2015  20 59  -21.6993 18477.8 -13769.3 -36.6927 23043.9
 22 06 2015  21 00  -21.7017 18478.8 -13768.7 -36.6900 23044.4
 22 06 2015  21 01  -21.7021 18481.0 -13768.1 -36.6855 23045.8
 22 06 2015  21 02  -21.7059 18480.9 -13767.5 -36.6845 23045.3
 22 06 2015  21 03  -21.7089 18481.3 -13767.1 -36.6832 23045.4
 22 06 2015  21 04  -21.7099 18482.3 -13766.8 -36.6810 23046.0
 22 06 2015  21 05  -21.7120 18482.5 -13766.4 -36.6799 23046.0
 22 06 2015  21 06  -21.7126 18484.2 -13766.2 -36.6771 23047.2
 22 06 2015  21 07  -21.7091 18487.5 -13765.6 -36.6709 23049.5
 22 06 2015  21 08  -21.7084 18489.4 -13765.0 -36.6669 23050.6
 22 06 2015  21 09  -21.7104 18489.7 -13764.4 -36.6653 23050.5
 22 06 2015  21 10  -21.7103 18491.4 -13764.0 -36.6620 23051.7
 22 06 2015  21 11  -21.7066 18494.4 -13763.6 -36.6565 23053.8
 22 06 2015  21 12  -21.7048 18496.1 -13763.0 -36.6531 23054.8
 22 06 2015  21 13  -21.7035 18497.9 -13762.6 -36.6494 23056.0
 22 06 2015  21 14  -21.7035 18499.1 -13762.1 -36.6467 23056.8
 22 06 2015  21 15  -21.7046 18499.1 -13761.8 -36.6462 23056.5
 22 06 2015  21 16  -21.7026 18500.2 -13761.7 -36.6442 23057.4
 22 06 2015  21 17  -21.7020 18500.2 -13761.4 -36.6437 23057.2
 22 06 2015  21 18  -21.7047 18499.7 -13761.4 -36.6443 23056.7
 22 06 2015  21 19  -21.7040 18501.1 -13761.3 -36.6420 23057.8
 22 06 2015  21 20  -21.7060 18501.0 -13760.9 -36.6414 23057.5
 22 06 2015  21 21  -21.7083 18500.5 -13760.9 -36.6422 23057.1
 22 06 2015  21 22  -21.7087 18501.6 -13760.8 -36.6404 23058.0
 22 06 2015  21 23  -21.7078 18502.6 -13760.6 -36.6384 23058.6
 22 06 2015  21 24  -21.7036 18503.9 -13760.5 -36.6365 23059.6
 22 06 2015  21 25  -21.7014 18503.5 -13760.6 -36.6372 23059.3
 22 06 2015  21 26  -21.7015 18502.1 -13760.9 -36.6400 23058.4
 22 06 2015  21 27  -21.6997 18501.8 -13761.3 -36.6411 23058.4
 22 06 2015  21 28  -21.6962 18502.1 -13761.5 -36.6411 23058.8
 22 06 2015  21 29  -21.6969 18503.4 -13761.5 -36.6390 23059.8
 22 06 2015  21 30  -21.6946 18503.7 -13761.4 -36.6385 23060.0
 22 06 2015  21 31  -21.6984 18503.4 -13761.5 -36.6391 23059.8
 22 06 2015  21 32  -21.6971 18504.1 -13761.6 -36.6384 23060.4
 22 06 2015  21 33  -21.6983 18503.6 -13761.8 -36.6395 23060.2
 22 06 2015  21 34  -21.6977 18503.6 -13762.1 -36.6400 23060.3
 22 06 2015  21 35  -21.6975 18503.0 -13762.4 -36.6414 23060.0
 22 06 2015  21 36  -21.6989 18501.7 -13762.7 -36.6441 23059.1
 22 06 2015  21 37  -21.6999 18499.5 -13763.3 -36.6485 23057.8
 22 06 2015  21 38  -21.6975 18498.5 -13764.0 -36.6513 23057.4
 22 06 2015  21 39  -21.6923 18498.2 -13764.6 -36.6530 23057.5
 22 06 2015  21 40  -21.6887 18497.3 -13765.2 -36.6555 23057.1
 22 06 2015  21 41  -21.6866 18495.7 -13765.7 -36.6590 23056.1
 22 06 2015  21 42  -21.6871 18492.5 -13766.5 -36.6654 23054.1
 22 06 2015  21 43  -21.6845 18490.2 -13767.6 -36.6709 23052.9
 22 06 2015  21 44  -21.6793 18490.0 -13768.6 -36.6732 23053.3
 22 06 2015  21 45  -21.6707 18491.7 -13769.1 -36.6716 23055.0
 22 06 2015  21 46  -21.6680 18491.9 -13769.2 -36.6715 23055.1
 22 06 2015  21 47  -21.6662 18492.5 -13769.4 -36.6709 23055.8
 22 06 2015  21 48  -21.6632 18494.2 -13769.4 -36.6685 23057.1
 22 06 2015  21 49  -21.6602 18494.8 -13769.3 -36.6674 23057.5
 22 06 2015  21 50  -21.6574 18496.6 -13769.3 -36.6647 23059.0
 22 06 2015  21 51  -21.6540 18498.9 -13769.1 -36.6609 23060.8
 22 06 2015  21 52  -21.6534 18500.4 -13768.7 -36.6581 23061.7
 22 06 2015  21 53  -21.6533 18500.6 -13768.6 -36.6574 23061.8
 22 06 2015  21 54  -21.6512 18502.9 -13768.4 -36.6536 23063.5
 22 06 2015  21 55  -21.6511 18503.7 -13768.0 -36.6517 23063.9
 22 06 2015  21 56  -21.6530 18503.4 -13767.9 -36.6520 23063.6
 22 06 2015  21 57  -21.6548 18503.9 -13767.8 -36.6509 23064.0
 22 06 2015  21 58  -21.6544 18505.1 -13767.7 -36.6488 23064.9
 22 06 2015  21 59  -21.6573 18504.2 -13767.4 -36.6498 23064.0
 22 06 2015  22 00  -21.6602 18504.2 -13767.4 -36.6498 23064.0
 22 06 2015  22 01  -21.6593 18505.6 -13767.3 -36.6474 23065.0
 22 06 2015  22 02  -21.6587 18506.8 -13767.0 -36.6450 23065.8
 22 06 2015  22 03  -21.6588 18507.5 -13766.6 -36.6433 23066.2
 22 06 2015  22 04  -21.6594 18508.2 -13766.4 -36.6418 23066.5
 22 06 2015  22 05  -21.6595 18509.4 -13766.0 -36.6393 23067.3
 22 06 2015  22 06  -21.6599 18510.5 -13765.7 -36.6369 23068.0
 22 06 2015  22 07  -21.6626 18510.2 -13765.3 -36.6366 23067.6
 22 06 2015  22 08  -21.6650 18509.6 -13765.2 -36.6373 23067.0
 22 06 2015  22 09  -21.6656 18509.1 -13765.2 -36.6380 23066.5
 22 06 2015  22 10  -21.6683 18508.3 -13765.1 -36.6390 23065.8
 22 06 2015  22 11  -21.6721 18508.2 -13764.9 -36.6388 23065.7
 22 06 2015  22 12  -21.6716 18510.4 -13764.6 -36.6349 23067.3
 22 06 2015  22 13  -21.6695 18513.1 -13764.2 -36.6301 23069.2
 22 06 2015  22 14  -21.6687 18514.5 -13763.6 -36.6268 23069.9
 22 06 2015  22 15  -21.6705 18513.8 -13763.1 -36.6269 23069.1
 22 06 2015  22 16  -21.6719 18513.3 -13762.9 -36.6273 23068.6
 22 06 2015  22 17  -21.6724 18513.2 -13762.8 -36.6272 23068.5
 22 06 2015  22 18  -21.6741 18510.0 -13762.9 -36.6321 23065.9
 22 06 2015  22 19  -21.6757 18507.6 -13763.2 -36.6363 23064.3
 22 06 2015  22 20  -21.6746 18507.8 -13763.3 -36.6362 23064.5
 22 06 2015  22 21  -21.6732 18508.2 -13763.2 -36.6353 23064.7
 22 06 2015  22 22  -21.6717 18508.7 -13763.0 -36.6344 23064.9
 22 06 2015  22 23  -21.6694 18508.9 -13762.8 -36.6336 23065.0
 22 06 2015  22 24  -21.6683 18508.0 -13762.6 -36.6345 23064.2
 22 06 2015  22 25  -21.6672 18507.5 -13762.6 -36.6353 23063.7
 22 06 2015  22 26  -21.6633 18508.9 -13762.5 -36.6330 23064.8
 22 06 2015  22 27  -21.6607 18509.6 -13762.2 -36.6314 23065.2
 22 06 2015  22 28  -21.6596 18509.5 -13761.9 -36.6310 23064.9
 22 06 2015  22 29  -21.6591 18509.2 -13761.7 -36.6309 23064.5
 22 06 2015  22 30  -21.6578 18509.6 -13761.5 -36.6299 23064.7
 22 06 2015  22 31  -21.6560 18510.6 -13761.2 -36.6279 23065.4
 22 06 2015  22 32  -21.6538 18511.4 -13760.9 -36.6260 23065.8
 22 06 2015  22 33  -21.6530 18511.5 -13760.5 -36.6252 23065.7
 22 06 2015  22 34  -21.6535 18511.0 -13760.3 -36.6254 23065.2
 22 06 2015  22 35  -21.6546 18510.2 -13760.2 -36.6264 23064.5
 22 06 2015  22 36  -21.6552 18509.8 -13760.0 -36.6268 23064.1
 22 06 2015  22 37  -21.6566 18509.6 -13759.9 -36.6267 23063.9
 22 06 2015  22 38  -21.6560 18510.2 -13759.7 -36.6254 23064.2
 22 06 2015  22 39  -21.6561 18510.4 -13759.4 -36.6245 23064.2
 22 06 2015  22 40  -21.6572 18509.8 -13759.2 -36.6250 23063.5
 22 06 2015  22 41  -21.6578 18509.3 -13759.1 -36.6257 23063.1
 22 06 2015  22 42  -21.6576 18509.1 -13759.0 -36.6256 23062.9
 22 06 2015  22 43  -21.6585 18508.8 -13758.9 -36.6259 23062.6
 22 06 2015  22 44  -21.6593 18509.2 -13758.7 -36.6250 23062.8
 22 06 2015  22 45  -21.6591 18510.0 -13758.4 -36.6231 23063.3
 22 06 2015  22 46  -21.6603 18509.1 -13758.2 -36.6241 23062.5
 22 06 2015  22 47  -21.6632 18507.4 -13758.2 -36.6266 23061.1
 22 06 2015  22 48  -21.6635 18507.0 -13758.2 -36.6272 23060.8
 22 06 2015  22 49  -21.6620 18507.8 -13758.2 -36.6261 23061.3
 22 06 2015  22 50  -21.6604 18509.1 -13758.0 -36.6237 23062.3
 22 06 2015  22 51  -21.6609 18509.3 -13757.8 -36.6229 23062.3
 22 06 2015  22 52  -21.6618 18508.8 -13757.7 -36.6234 23061.9
 22 06 2015  22 53  -21.6605 18508.9 -13757.6 -36.6232 23061.9
 22 06 2015  22 54  -21.6610 18507.1 -13757.7 -36.6261 23060.5
 22 06 2015  22 55  -21.6634 18505.4 -13757.9 -36.6290 23059.3
 22 06 2015  22 56  -21.6650 18505.0 -13758.2 -36.6302 23059.1
 22 06 2015  22 57  -21.6659 18506.2 -13758.1 -36.6282 23060.0
 22 06 2015  22 58  -21.6664 18506.2 -13758.0 -36.6281 23060.0
 22 06 2015  22 59  -21.6661 18506.7 -13758.0 -36.6274 23060.3
 22 06 2015  23 00  -21.6670 18507.2 -13757.9 -36.6263 23060.8
 22 06 2015  23 01  -21.6695 18507.7 -13757.7 -36.6253 23061.0
 22 06 2015  23 02  -21.6726 18507.7 -13757.6 -36.6250 23060.9
 22 06 2015  23 03  -21.6744 18507.9 -13757.5 -36.6246 23061.0
 22 06 2015  23 04  -21.6760 18507.7 -13757.5 -36.6248 23060.8
 22 06 2015  23 05  -21.6772 18507.9 -13757.4 -36.6244 23061.0
 22 06 2015  23 06  -21.6777 18508.4 -13757.4 -36.6236 23061.4
 22 06 2015  23 07  -21.6776 18509.1 -13757.3 -36.6223 23061.9
 22 06 2015  23 08  -21.6777 18509.9 -13757.2 -36.6210 23062.4
 22 06 2015  23 09  -21.6767 18511.5 -13757.0 -36.6181 23063.6
 22 06 2015  23 10  -21.6706 18517.9 -13756.5 -36.6078 23068.5
 22 06 2015  23 11  -21.6713 18521.6 -13755.3 -36.5999 23070.7
 22 06 2015  23 12  -21.6766 18520.4 -13754.7 -36.6005 23069.4
 22 06 2015  23 13  -21.6787 18519.3 -13754.7 -36.6020 23068.5
 22 06 2015  23 14  -21.6786 18520.0 -13754.8 -36.6012 23069.1
 22 06 2015  23 15  -21.6783 18521.6 -13754.5 -36.5982 23070.3
 22 06 2015  23 16  -21.6814 18520.0 -13754.3 -36.6002 23068.8
 22 06 2015  23 17  -21.6876 18515.8 -13754.6 -36.6071 23065.6
 22 06 2015  23 18  -21.6910 18514.0 -13755.1 -36.6107 23064.5
 22 06 2015  23 19  -21.6904 18514.3 -13755.4 -36.6109 23064.9
 22 06 2015  23 20  -21.6887 18514.9 -13755.5 -36.6101 23065.4
 22 06 2015  23 21  -21.6889 18513.8 -13755.5 -36.6118 23064.5
 22 06 2015  23 22  -21.6909 18511.4 -13755.9 -36.6161 23062.9
 22 06 2015  23 23  -21.6911 18510.4 -13756.3 -36.6184 23062.4
 22 06 2015  23 24  -21.6907 18510.3 -13756.5 -36.6189 23062.4
 22 06 2015  23 25  -21.6899 18510.6 -13756.6 -36.6187 23062.7
 22 06 2015  23 26  -21.6895 18511.2 -13756.6 -36.6177 23063.2
 22 06 2015  23 27  -21.6898 18511.2 -13756.6 -36.6177 23063.1
 22 06 2015  23 28  -21.6902 18511.5 -13756.6 -36.6175 23063.4
 22 06 2015  23 29  -21.6901 18512.4 -13756.5 -36.6158 23064.0
 22 06 2015  23 30  -21.6884 18513.8 -13756.3 -36.6133 23065.0
 22 06 2015  23 31  -21.6882 18514.2 -13756.1 -36.6125 23065.2
 22 06 2015  23 32  -21.6892 18513.9 -13756.0 -36.6126 23065.0
 22 06 2015  23 33  -21.6889 18513.4 -13756.1 -36.6134 23064.6
 22 06 2015  23 34  -21.6884 18513.5 -13756.2 -36.6136 23064.7
 22 06 2015  23 35  -21.6878 18514.4 -13756.1 -36.6122 23065.4
 22 06 2015  23 36  -21.6873 18515.5 -13755.9 -36.6101 23066.1
 22 06 2015  23 37  -21.6873 18516.4 -13755.7 -36.6084 23066.7
 22 06 2015  23 38  -21.6876 18517.1 -13755.5 -36.6069 23067.2
 22 06 2015  23 39  -21.6859 18519.4 -13755.1 -36.6027 23068.9
 22 06 2015  23 40  -21.6835 18522.3 -13754.6 -36.5974 23070.9
 22 06 2015  23 41  -21.6805 18524.3 -13754.1 -36.5935 23072.1
 22 06 2015  23 42  -21.6801 18523.6 -13753.9 -36.5940 23071.5
 22 06 2015  23 43  -21.6799 18523.3 -13753.9 -36.5946 23071.3
 22 06 2015  23 44  -21.6787 18523.4 -13754.0 -36.5945 23071.3
 22 06 2015  23 45  -21.6775 18523.8 -13754.0 -36.5940 23071.7
 22 06 2015  23 46  -21.6784 18523.0 -13754.0 -36.5952 23071.0
 22 06 2015  23 47  -21.6803 18522.3 -13754.1 -36.5964 23070.6
 22 06 2015  23 48  -21.6794 18522.3 -13754.2 -36.5965 23070.6
 22 06 2015  23 49  -21.6771 18523.3 -13754.2 -36.5952 23071.4
 22 06 2015  23 50  -21.6758 18523.8 -13754.1 -36.5942 23071.8
 22 06 2015  23 51  -21.6747 18523.5 -13754.1 -36.5947 23071.6
 22 06 2015  23 52  -21.6728 18523.4 -13754.3 -36.5952 23071.5
 22 06 2015  23 53  -21.6705 18523.3 -13754.5 -36.5957 23071.5
 22 06 2015  23 54  -21.6697 18522.2 -13754.6 -36.5977 23070.8
 22 06 2015  23 55  -21.6680 18523.7 -13754.7 -36.5954 23072.1
 22 06 2015  23 56  -21.6640 18525.5 -13754.5 -36.5924 23073.4
 22 06 2015  23 57  -21.6616 18526.7 -13754.2 -36.5902 23074.1
 22 06 2015  23 58  -21.6615 18527.2 -13754.1 -36.5890 23074.5
