SAO MARTINHO DA SERRA EMBRACE-06 <173> 1 Min. Reported data

 DD MM YYYY  HH MM   D(Deg)  H(nT)   Z(nT)   I(Deg)   F(nT)

 22 06 2015  00 00  -14.4878 17980.8 -13538.8 -36.9781 22507.9
 22 06 2015  00 01  -14.4877 17980.9 -13538.1 -36.9767 22507.6
 22 06 2015  00 02  -14.4872 17980.9 -13538.5 -36.9773 22507.9
 22 06 2015  00 03  -14.4869 17981.2 -13538.7 -36.9772 22508.2
 22 06 2015  00 04  -14.4863 17981.3 -13539.2 -36.9784 22508.6
 22 06 2015  00 05  -14.4865 17981.2 -13538.9 -36.9778 22508.4
 22 06 2015  00 06  -14.4867 17981.2 -13538.8 -36.9775 22508.3
 22 06 2015  00 07  -14.4863 17981.5 -13538.7 -36.9770 22508.4
 22 06 2015  00 08  -14.4857 17981.5 -13538.8 -36.9770 22508.6
 22 06 2015  00 09  -14.4854 17981.6 -13538.7 -36.9768 22508.5
 22 06 2015  00 10  -14.4853 17981.7 -13539.1 -36.9774 22508.8
 22 06 2015  00 11  -14.4853 17981.6 -13539.0 -36.9774 22508.7
 22 06 2015  00 12  -14.4854 17981.6 -13538.5 -36.9763 22508.4
 22 06 2015  00 13  -14.4858 17981.6 -13538.0 -36.9753 22508.1
 22 06 2015  00 14  -14.4854 17981.7 -13538.7 -36.9765 22508.6
 22 06 2015  00 15  -14.4854 17981.8 -13538.7 -36.9764 22508.7
 22 06 2015  00 16  -14.4853 17982.0 -13538.3 -36.9753 22508.6
 22 06 2015  00 17  -14.4848 17982.1 -13538.9 -36.9763 22509.1
 22 06 2015  00 18  -14.4850 17982.0 -13538.3 -36.9753 22508.7
 22 06 2015  00 19  -14.4849 17982.2 -13538.3 -36.9749 22508.7
 22 06 2015  00 20  -14.4845 17982.1 -13538.5 -36.9755 22508.8
 22 06 2015  00 21  -14.4847 17981.9 -13537.9 -36.9746 22508.3
 22 06 2015  00 22  -14.4852 17981.5 -13538.3 -36.9761 22508.3
 22 06 2015  00 23  -14.4853 17981.4 -13538.5 -36.9767 22508.3
 22 06 2015  00 24  -14.4855 17981.1 -13538.6 -36.9773 22508.0
 22 06 2015  00 25  -14.4862 17981.0 -13538.1 -36.9765 22507.7
 22 06 2015  00 26  -14.4859 17981.0 -13538.3 -36.9769 22507.8
 22 06 2015  00 27  -14.4854 17981.1 -13538.4 -36.9768 22507.9
 22 06 2015  00 28  -14.4848 17981.3 -13538.4 -36.9766 22508.1
 22 06 2015  00 29  -14.4839 17981.4 -13538.5 -36.9766 22508.3
 22 06 2015  00 30  -14.4832 17981.3 -13538.6 -36.9771 22508.3
 22 06 2015  00 31  -14.4829 17981.1 -13538.3 -36.9767 22507.9
 22 06 2015  00 32  -14.4829 17981.1 -13538.6 -36.9773 22508.1
 22 06 2015  00 33  -14.4831 17981.1 -13538.2 -36.9765 22507.9
 22 06 2015  00 34  -14.4828 17981.3 -13538.5 -36.9767 22508.1
 22 06 2015  00 35  -14.4829 17981.3 -13538.3 -36.9764 22508.0
 22 06 2015  00 36  -14.4831 17981.2 -13538.9 -36.9778 22508.3
 22 06 2015  00 37  -14.4834 17981.1 -13538.9 -36.9779 22508.2
 22 06 2015  00 38  -14.4836 17980.9 -13538.9 -36.9783 22508.1
 22 06 2015  00 39  -14.4839 17980.9 -13538.6 -36.9776 22507.9
 22 06 2015  00 40  -14.4842 17980.9 -13538.6 -36.9777 22507.9
 22 06 2015  00 41  -14.4844 17980.6 -13538.4 -36.9777 22507.5
 22 06 2015  00 42  -14.4848 17980.1 -13538.3 -36.9781 22507.1
 22 06 2015  00 43  -14.4850 17979.8 -13538.7 -36.9794 22507.1
 22 06 2015  00 44  -14.4851 17979.7 -13538.8 -36.9799 22507.0
 22 06 2015  00 45  -14.4854 17979.3 -13538.2 -36.9792 22506.4
 22 06 2015  00 46  -14.4859 17979.0 -13538.3 -36.9798 22506.2
 22 06 2015  00 47  -14.4865 17978.9 -13538.7 -36.9808 22506.3
 22 06 2015  00 48  -14.4872 17978.9 -13538.6 -36.9806 22506.3
 22 06 2015  00 49  -14.4872 17979.0 -13539.0 -36.9813 22506.6
 22 06 2015  00 50  -14.4871 17979.1 -13538.6 -36.9803 22506.4
 22 06 2015  00 51  -14.4869 17979.1 -13538.6 -36.9804 22506.5
 22 06 2015  00 52  -14.4865 17979.2 -13538.7 -36.9803 22506.6
 22 06 2015  00 53  -14.4861 17979.2 -13538.6 -36.9801 22506.6
 22 06 2015  00 54  -14.4855 17979.3 -13538.4 -36.9798 22506.5
 22 06 2015  00 55  -14.4848 17979.1 -13539.0 -36.9812 22506.8
 22 06 2015  00 56  -14.4848 17978.8 -13538.5 -36.9806 22506.2
 22 06 2015  00 57  -14.4850 17978.5 -13538.5 -36.9811 22506.0
 22 06 2015  00 58  -14.4855 17978.3 -13538.5 -36.9814 22505.7
 22 06 2015  00 59  -14.4859 17978.0 -13538.6 -36.9821 22505.6
 22 06 2015  01 00  -14.4864 17977.9 -13538.5 -36.9820 22505.5
 22 06 2015  01 01  -14.4864 17977.7 -13538.8 -36.9829 22505.5
 22 06 2015  01 02  -14.4861 17977.7 -13538.9 -36.9832 22505.5
 22 06 2015  01 03  -14.4863 17977.7 -13538.8 -36.9829 22505.5
 22 06 2015  01 04  -14.4864 17978.0 -13538.9 -36.9827 22505.8
 22 06 2015  01 05  -14.4859 17978.1 -13538.9 -36.9825 22505.9
 22 06 2015  01 06  -14.4853 17978.2 -13538.9 -36.9822 22505.9
 22 06 2015  01 07  -14.4847 17978.3 -13539.0 -36.9824 22506.1
 22 06 2015  01 08  -14.4843 17978.5 -13539.2 -36.9824 22506.3
 22 06 2015  01 09  -14.4843 17978.5 -13539.0 -36.9822 22506.2
 22 06 2015  01 10  -14.4847 17978.4 -13538.9 -36.9822 22506.1
 22 06 2015  01 11  -14.4849 17978.2 -13538.9 -36.9823 22505.9
 22 06 2015  01 12  -14.4849 17978.0 -13538.7 -36.9823 22505.7
 22 06 2015  01 13  -14.4848 17977.9 -13539.3 -36.9835 22505.9
 22 06 2015  01 14  -14.4848 17977.7 -13538.8 -36.9829 22505.5
 22 06 2015  01 15  -14.4849 17977.5 -13538.5 -36.9825 22505.1
 22 06 2015  01 16  -14.4851 17977.3 -13538.9 -36.9837 22505.2
 22 06 2015  01 17  -14.4856 17977.1 -13538.4 -36.9830 22504.8
 22 06 2015  01 18  -14.4857 17977.0 -13539.3 -36.9849 22505.2
 22 06 2015  01 19  -14.4860 17976.9 -13539.1 -36.9847 22505.0
 22 06 2015  01 20  -14.4859 17976.9 -13539.0 -36.9844 22505.0
 22 06 2015  01 21  -14.4858 17977.0 -13539.1 -36.9846 22505.1
 22 06 2015  01 22  -14.4859 17977.0 -13539.2 -36.9848 22505.2
 22 06 2015  01 23  -14.4860 17977.1 -13538.7 -36.9837 22504.9
 22 06 2015  01 24  -14.4860 17977.0 -13538.9 -36.9842 22504.9
 22 06 2015  01 25  -14.4860 17977.0 -13539.0 -36.9844 22505.0
 22 06 2015  01 26  -14.4860 17976.9 -13538.9 -36.9844 22504.9
 22 06 2015  01 27  -14.4860 17976.8 -13539.0 -36.9846 22504.9
 22 06 2015  01 28  -14.4859 17976.7 -13538.7 -36.9842 22504.6
 22 06 2015  01 29  -14.4857 17976.6 -13539.4 -36.9857 22505.0
 22 06 2015  01 30  -14.4854 17976.7 -13539.1 -36.9850 22504.8
 22 06 2015  01 31  -14.4851 17976.7 -13539.1 -36.9851 22504.9
 22 06 2015  01 32  -14.4849 17976.6 -13539.4 -36.9858 22504.9
 22 06 2015  01 33  -14.4849 17976.4 -13539.0 -36.9853 22504.6
 22 06 2015  01 34  -14.4846 17976.5 -13539.4 -36.9860 22504.9
 22 06 2015  01 35  -14.4846 17976.5 -13539.2 -36.9856 22504.7
 22 06 2015  01 36  -14.4844 17976.5 -13539.2 -36.9856 22504.8
 22 06 2015  01 37  -14.4840 17976.6 -13539.6 -36.9862 22505.1
 22 06 2015  01 38  -14.4840 17976.8 -13539.4 -36.9856 22505.1
 22 06 2015  01 39  -14.4839 17976.8 -13539.5 -36.9855 22505.2
 22 06 2015  01 40  -14.4839 17976.8 -13539.5 -36.9857 22505.1
 22 06 2015  01 41  -14.4837 17976.9 -13539.5 -36.9856 22505.2
 22 06 2015  01 42  -14.4835 17977.0 -13539.7 -36.9859 22505.4
 22 06 2015  01 43  -14.4836 17976.9 -13539.2 -36.9848 22505.1
 22 06 2015  01 44  -14.4835 17977.0 -13539.3 -36.9851 22505.2
 22 06 2015  01 45  -14.4833 17977.2 -13539.2 -36.9845 22505.3
 22 06 2015  01 46  -14.4833 17977.2 -13539.2 -36.9845 22505.4
 22 06 2015  01 47  -14.4833 17977.1 -13539.2 -36.9847 22505.3
 22 06 2015  01 48  -14.4830 17977.2 -13539.0 -36.9841 22505.2
 22 06 2015  01 49  -14.4826 17977.3 -13539.1 -36.9842 22505.4
 22 06 2015  01 50  -14.4823 17977.2 -13539.2 -36.9845 22505.3
 22 06 2015  01 51  -14.4824 17977.2 -13539.1 -36.9842 22505.3
 22 06 2015  01 52  -14.4825 17977.3 -13539.3 -36.9844 22505.5
 22 06 2015  01 53  -14.4825 17977.3 -13539.1 -36.9842 22505.4
 22 06 2015  01 54  -14.4826 17977.1 -13538.8 -36.9838 22505.0
 22 06 2015  01 55  -14.4824 17977.4 -13539.2 -36.9841 22505.4
 22 06 2015  01 56  -14.4827 17976.9 -13539.2 -36.9849 22505.1
 22 06 2015  01 57  -14.4825 17977.1 -13538.9 -36.9839 22505.0
 22 06 2015  01 58  -14.4824 17977.6 -13539.0 -36.9835 22505.5
 22 06 2015  01 59  -14.4827 17977.0 -13539.5 -36.9853 22505.3
 22 06 2015  02 00  -14.4828 17977.2 -13539.6 -36.9853 22505.5
 22 06 2015  02 01  -14.4825 17978.2 -13539.1 -36.9827 22506.1
 22 06 2015  02 02  -14.4827 17977.3 -13539.0 -36.9839 22505.3
 22 06 2015  02 03  -14.4828 17976.6 -13539.1 -36.9851 22504.8
 22 06 2015  02 04  -14.4822 17977.8 -13539.2 -36.9836 22505.8
 22 06 2015  02 05  -14.4821 17977.8 -13539.6 -36.9843 22506.1
 22 06 2015  02 06  -14.4827 17976.9 -13538.5 -36.9836 22504.7
 22 06 2015  02 07  -14.4827 17977.2 -13539.7 -36.9856 22505.6
 22 06 2015  02 08  -14.4828 17977.8 -13538.9 -36.9830 22505.6
 22 06 2015  02 09  -14.4830 17977.3 -13539.0 -36.9840 22505.3
 22 06 2015  02 10  -14.4828 17977.3 -13539.2 -36.9842 22505.4
 22 06 2015  02 11  -14.4827 17977.6 -13539.2 -36.9838 22505.7
 22 06 2015  02 12  -14.4827 17977.5 -13539.0 -36.9836 22505.4
 22 06 2015  02 13  -14.4823 17977.5 -13539.3 -36.9842 22505.7
 22 06 2015  02 14  -14.4821 17977.7 -13539.0 -36.9833 22505.6
 22 06 2015  02 15  -14.4820 17977.6 -13538.9 -36.9833 22505.4
 22 06 2015  02 16  -14.4817 17977.7 -13539.2 -36.9837 22505.8
 22 06 2015  02 17  -14.4815 17977.9 -13539.0 -36.9830 22505.8
 22 06 2015  02 18  -14.4813 17977.8 -13538.8 -36.9827 22505.6
 22 06 2015  02 19  -14.4813 17977.8 -13538.4 -36.9818 22505.3
 22 06 2015  02 20  -14.4812 17978.0 -13538.3 -36.9814 22505.4
 22 06 2015  02 21  -14.4812 17977.8 -13538.6 -36.9823 22505.5
 22 06 2015  02 22  -14.4816 17977.6 -13539.0 -36.9835 22505.6
 22 06 2015  02 23  -14.4817 17977.8 -13539.2 -36.9835 22505.8
 22 06 2015  02 24  -14.4820 17977.6 -13538.8 -36.9830 22505.4
 22 06 2015  02 25  -14.4820 17977.6 -13539.2 -36.9839 22505.6
 22 06 2015  02 26  -14.4820 17977.7 -13538.9 -36.9832 22505.5
 22 06 2015  02 27  -14.4819 17977.6 -13539.0 -36.9834 22505.5
 22 06 2015  02 28  -14.4818 17977.6 -13539.0 -36.9835 22505.5
 22 06 2015  02 29  -14.4819 17977.7 -13539.0 -36.9834 22505.6
 22 06 2015  02 30  -14.4820 17977.5 -13538.9 -36.9833 22505.4
 22 06 2015  02 31  -14.4818 17977.5 -13539.3 -36.9842 22505.7
 22 06 2015  02 32  -14.4821 17977.4 -13538.8 -36.9834 22505.2
 22 06 2015  02 33  -14.4822 17977.3 -13538.9 -36.9838 22505.2
 22 06 2015  02 34  -14.4824 17977.3 -13538.6 -36.9830 22505.0
 22 06 2015  02 35  -14.4822 17977.4 -13539.0 -36.9837 22505.4
 22 06 2015  02 36  -14.4822 17977.5 -13539.4 -36.9845 22505.7
 22 06 2015  02 37  -14.4822 17977.5 -13539.2 -36.9840 22505.6
 22 06 2015  02 38  -14.4819 17977.6 -13539.5 -36.9845 22505.8
 22 06 2015  02 40  -14.4823 17978.9 -13538.2 -36.9798 22506.1
 22 06 2015  02 41  -14.4823 17978.7 -13538.9 -36.9816 22506.4
 22 06 2015  02 42  -14.4822 17978.7 -13539.2 -36.9822 22506.5
 22 06 2015  02 43  -14.4825 17978.7 -13538.9 -36.9815 22506.3
 22 06 2015  02 44  -14.4829 17978.6 -13538.5 -36.9810 22506.0
 22 06 2015  02 45  -14.4831 17978.6 -13538.7 -36.9813 22506.2
 22 06 2015  02 46  -14.4830 17978.7 -13538.8 -36.9815 22506.3
 22 06 2015  02 47  -14.4830 17978.7 -13538.7 -36.9812 22506.2
 22 06 2015  02 48  -14.4833 17978.6 -13538.8 -36.9814 22506.2
 22 06 2015  02 49  -14.4835 17978.6 -13538.8 -36.9814 22506.2
 22 06 2015  02 50  -14.4836 17978.7 -13538.7 -36.9812 22506.3
 22 06 2015  02 51  -14.4839 17978.4 -13538.8 -36.9818 22506.0
 22 06 2015  02 52  -14.4843 17978.3 -13538.8 -36.9819 22506.0
 22 06 2015  02 53  -14.4843 17978.6 -13538.8 -36.9815 22506.2
 22 06 2015  02 54  -14.4833 17978.9 -13539.2 -36.9818 22506.7
 22 06 2015  02 55  -14.4828 17978.9 -13538.8 -36.9810 22506.5
 22 06 2015  02 56  -14.4826 17979.0 -13538.6 -36.9805 22506.4
 22 06 2015  02 57  -14.4823 17979.5 -13538.7 -36.9799 22506.8
 22 06 2015  02 58  -14.4820 17979.7 -13538.8 -36.9799 22507.1
 22 06 2015  02 59  -14.4824 17979.3 -13538.4 -36.9795 22506.5
 22 06 2015  03 00  -14.4819 17979.8 -13538.6 -36.9793 22507.1
 22 06 2015  03 01  -14.4811 17980.1 -13539.0 -36.9797 22507.5
 22 06 2015  03 02  -14.4814 17979.9 -13538.9 -36.9799 22507.3
 22 06 2015  03 03  -14.4817 17979.7 -13538.9 -36.9801 22507.2
 22 06 2015  03 04  -14.4818 17979.6 -13538.5 -36.9794 22506.9
 22 06 2015  03 05  -14.4817 17979.6 -13538.8 -36.9801 22507.0
 22 06 2015  03 06  -14.4819 17979.3 -13538.3 -36.9795 22506.5
 22 06 2015  03 07  -14.4823 17979.3 -13538.7 -36.9804 22506.7
 22 06 2015  03 08  -14.4827 17979.1 -13538.4 -36.9800 22506.4
 22 06 2015  03 09  -14.4829 17978.9 -13538.5 -36.9804 22506.3
 22 06 2015  03 10  -14.4824 17979.2 -13538.6 -36.9803 22506.6
 22 06 2015  03 11  -14.4825 17979.1 -13538.4 -36.9800 22506.4
 22 06 2015  03 12  -14.4825 17979.0 -13538.6 -36.9805 22506.4
 22 06 2015  03 13  -14.4825 17979.1 -13538.5 -36.9801 22506.4
 22 06 2015  03 14  -14.4821 17979.5 -13539.0 -36.9807 22507.0
 22 06 2015  03 15  -14.4819 17979.5 -13538.9 -36.9804 22506.9
 22 06 2015  03 16  -14.4817 17979.6 -13538.8 -36.9800 22507.0
 22 06 2015  03 17  -14.4814 17979.8 -13538.7 -36.9794 22507.1
 22 06 2015  03 18  -14.4813 17980.0 -13538.3 -36.9785 22507.0
 22 06 2015  03 19  -14.4812 17980.2 -13537.9 -36.9773 22506.9
 22 06 2015  03 20  -14.4811 17980.4 -13538.3 -36.9778 22507.4
 22 06 2015  03 21  -14.4810 17980.6 -13538.5 -36.9779 22507.6
 22 06 2015  03 22  -14.4809 17980.7 -13539.4 -36.9796 22508.2
 22 06 2015  03 23  -14.4809 17980.8 -13538.9 -36.9784 22508.0
 22 06 2015  03 24  -14.4809 17980.8 -13539.3 -36.9792 22508.3
 22 06 2015  03 25  -14.4816 17980.4 -13538.3 -36.9778 22507.3
 22 06 2015  03 26  -14.4824 17980.0 -13538.1 -36.9781 22506.9
 22 06 2015  03 27  -14.4822 17980.2 -13538.5 -36.9785 22507.3
 22 06 2015  03 28  -14.4823 17980.0 -13538.7 -36.9793 22507.2
 22 06 2015  03 29  -14.4826 17979.6 -13538.2 -36.9789 22506.6
 22 06 2015  03 30  -14.4825 17979.2 -13539.0 -36.9811 22506.8
 22 06 2015  03 31  -14.4828 17979.0 -13538.5 -36.9803 22506.4
 22 06 2015  03 32  -14.4830 17978.7 -13538.5 -36.9809 22506.1
 22 06 2015  03 33  -14.4834 17978.3 -13538.0 -36.9803 22505.5
 22 06 2015  03 34  -14.4833 17978.3 -13537.9 -36.9803 22505.4
 22 06 2015  03 35  -14.4829 17978.3 -13538.3 -36.9810 22505.7
 22 06 2015  03 36  -14.4827 17978.2 -13538.7 -36.9819 22505.9
 22 06 2015  03 37  -14.4828 17978.0 -13539.2 -36.9831 22506.0
 22 06 2015  03 38  -14.4825 17978.2 -13538.8 -36.9820 22505.9
 22 06 2015  03 39  -14.4822 17978.2 -13538.8 -36.9821 22505.8
 22 06 2015  03 40  -14.4824 17978.2 -13538.5 -36.9814 22505.7
 22 06 2015  03 41  -14.4822 17978.3 -13538.9 -36.9822 22506.1
 22 06 2015  03 42  -14.4820 17978.4 -13538.6 -36.9814 22505.9
 22 06 2015  03 43  -14.4817 17978.4 -13538.7 -36.9817 22506.0
 22 06 2015  03 44  -14.4814 17978.4 -13538.7 -36.9816 22506.0
 22 06 2015  03 45  -14.4813 17978.4 -13538.9 -36.9820 22506.1
 22 06 2015  03 46  -14.4811 17978.5 -13538.9 -36.9819 22506.2
 22 06 2015  03 47  -14.4808 17978.7 -13538.8 -36.9813 22506.2
 22 06 2015  03 48  -14.4804 17978.9 -13538.8 -36.9809 22506.4
 22 06 2015  03 49  -14.4799 17979.2 -13538.9 -36.9809 22506.7
 22 06 2015  03 50  -14.4796 17979.3 -13538.8 -36.9805 22506.8
 22 06 2015  03 51  -14.4795 17979.5 -13538.8 -36.9802 22506.9
 22 06 2015  03 52  -14.4795 17979.6 -13538.8 -36.9800 22507.0
 22 06 2015  03 53  -14.4797 17979.7 -13538.8 -36.9798 22507.1
 22 06 2015  03 54  -14.4796 17979.7 -13538.7 -36.9796 22507.1
 22 06 2015  03 55  -14.4794 17979.7 -13538.7 -36.9795 22507.0
 22 06 2015  03 56  -14.4790 17980.0 -13538.8 -36.9794 22507.3
 22 06 2015  03 57  -14.4785 17980.2 -13538.8 -36.9791 22507.5
 22 06 2015  03 58  -14.4783 17980.4 -13538.8 -36.9788 22507.6
 22 06 2015  03 59  -14.4781 17980.5 -13538.8 -36.9785 22507.7
 22 06 2015  04 00  -14.4783 17980.4 -13538.7 -36.9786 22507.6
 22 06 2015  04 01  -14.4785 17980.4 -13538.8 -36.9787 22507.6
 22 06 2015  04 02  -14.4788 17980.4 -13538.6 -36.9783 22507.5
 22 06 2015  04 03  -14.4791 17980.3 -13538.7 -36.9788 22507.5
 22 06 2015  04 04  -14.4797 17980.1 -13538.6 -36.9787 22507.3
 22 06 2015  04 05  -14.4801 17980.1 -13538.5 -36.9786 22507.2
 22 06 2015  04 06  -14.4805 17980.0 -13538.8 -36.9793 22507.3
 22 06 2015  04 07  -14.4810 17979.8 -13538.6 -36.9792 22507.0
 22 06 2015  04 08  -14.4814 17979.7 -13538.6 -36.9795 22507.0
 22 06 2015  04 09  -14.4819 17979.7 -13538.6 -36.9795 22507.0
 22 06 2015  04 10  -14.4821 17979.6 -13538.6 -36.9795 22506.8
 22 06 2015  04 11  -14.4825 17979.4 -13538.7 -36.9802 22506.7
 22 06 2015  04 12  -14.4828 17979.3 -13539.0 -36.9808 22506.9
 22 06 2015  04 13  -14.4832 17979.4 -13538.3 -36.9792 22506.5
 22 06 2015  04 14  -14.4831 17979.3 -13538.5 -36.9798 22506.6
 22 06 2015  04 15  -14.4835 17979.1 -13538.2 -36.9797 22506.2
 22 06 2015  04 16  -14.4835 17979.3 -13538.2 -36.9794 22506.4
 22 06 2015  04 17  -14.4834 17979.3 -13538.3 -36.9794 22506.5
 22 06 2015  04 18  -14.4834 17979.3 -13538.7 -36.9802 22506.7
 22 06 2015  04 19  -14.4835 17979.4 -13538.7 -36.9801 22506.7
 22 06 2015  04 20  -14.4830 17979.7 -13538.4 -36.9791 22506.8
 22 06 2015  04 21  -14.4825 17979.8 -13538.3 -36.9786 22506.8
 22 06 2015  04 22  -14.4822 17979.8 -13538.5 -36.9791 22507.0
 22 06 2015  04 23  -14.4820 17979.9 -13539.0 -36.9799 22507.4
 22 06 2015  04 24  -14.4816 17980.1 -13538.9 -36.9794 22507.5
 22 06 2015  04 25  -14.4811 17980.2 -13538.7 -36.9789 22507.4
 22 06 2015  04 26  -14.4812 17980.0 -13538.9 -36.9796 22507.4
 22 06 2015  04 27  -14.4812 17980.1 -13538.7 -36.9790 22507.4
 22 06 2015  04 28  -14.4811 17980.3 -13538.6 -36.9785 22507.5
 22 06 2015  04 29  -14.4811 17980.2 -13538.9 -36.9791 22507.5
 22 06 2015  04 30  -14.4812 17979.9 -13538.8 -36.9795 22507.2
 22 06 2015  04 31  -14.4817 17979.6 -13538.4 -36.9792 22506.7
 22 06 2015  04 32  -14.4816 17979.5 -13538.5 -36.9796 22506.8
 22 06 2015  04 33  -14.4816 17979.5 -13538.8 -36.9801 22507.0
 22 06 2015  04 34  -14.4817 17979.3 -13538.5 -36.9798 22506.6
 22 06 2015  04 35  -14.4816 17979.1 -13538.7 -36.9804 22506.5
 22 06 2015  04 36  -14.4820 17978.8 -13538.5 -36.9806 22506.1
 22 06 2015  04 37  -14.4822 17978.6 -13538.8 -36.9815 22506.2
 22 06 2015  04 38  -14.4822 17978.6 -13538.7 -36.9815 22506.1
 22 06 2015  04 39  -14.4824 17978.2 -13538.5 -36.9816 22505.7
 22 06 2015  04 40  -14.4824 17978.2 -13538.6 -36.9816 22505.7
 22 06 2015  04 41  -14.4826 17978.2 -13538.5 -36.9816 22505.7
 22 06 2015  04 42  -14.4829 17978.1 -13538.7 -36.9822 22505.7
 22 06 2015  04 43  -14.4833 17977.9 -13538.9 -36.9827 22505.7
 22 06 2015  04 44  -14.4833 17978.0 -13538.6 -36.9821 22505.6
 22 06 2015  04 45  -14.4828 17978.3 -13539.1 -36.9827 22506.2
 22 06 2015  04 46  -14.4823 17978.5 -13539.1 -36.9823 22506.3
 22 06 2015  04 47  -14.4825 17978.3 -13539.1 -36.9824 22506.1
 22 06 2015  04 48  -14.4831 17978.4 -13539.0 -36.9822 22506.2
 22 06 2015  04 49  -14.4829 17978.9 -13538.9 -36.9812 22506.5
 22 06 2015  04 50  -14.4823 17979.0 -13539.1 -36.9816 22506.8
 22 06 2015  04 51  -14.4822 17979.1 -13539.3 -36.9817 22506.9
 22 06 2015  04 52  -14.4814 17979.6 -13539.7 -36.9817 22507.6
 22 06 2015  04 53  -14.4814 17979.5 -13539.2 -36.9810 22507.2
 22 06 2015  04 54  -14.4819 17979.4 -13538.5 -36.9797 22506.6
 22 06 2015  04 55  -14.4811 17979.9 -13538.2 -36.9784 22506.9
 22 06 2015  04 56  -14.4807 17979.8 -13538.9 -36.9799 22507.2
 22 06 2015  04 57  -14.4807 17979.8 -13539.2 -36.9805 22507.4
 22 06 2015  04 58  -14.4804 17979.8 -13538.3 -36.9786 22506.9
 22 06 2015  04 59  -14.4802 17979.8 -13538.0 -36.9780 22506.7
 22 06 2015  05 00  -14.4797 17979.8 -13538.7 -36.9794 22507.1
 22 06 2015  05 01  -14.4797 17979.8 -13538.1 -36.9784 22506.7
 22 06 2015  05 02  -14.4790 17979.7 -13538.8 -36.9799 22507.1
 22 06 2015  05 03  -14.4791 17979.1 -13538.9 -36.9808 22506.6
 22 06 2015  05 04  -14.4795 17978.8 -13538.8 -36.9813 22506.4
 22 06 2015  05 05  -14.4800 17978.1 -13538.5 -36.9816 22505.6
 22 06 2015  05 06  -14.4809 17977.6 -13538.1 -36.9817 22505.0
 22 06 2015  05 07  -14.4813 17977.6 -13538.4 -36.9821 22505.1
 22 06 2015  05 08  -14.4811 17977.7 -13538.6 -36.9826 22505.3
 22 06 2015  05 09  -14.4808 17977.8 -13538.8 -36.9827 22505.6
 22 06 2015  05 10  -14.4805 17978.1 -13538.9 -36.9825 22505.9
 22 06 2015  05 11  -14.4802 17978.4 -13539.0 -36.9821 22506.1
 22 06 2015  05 12  -14.4795 17978.8 -13538.9 -36.9814 22506.5
 22 06 2015  05 13  -14.4785 17979.2 -13539.5 -36.9821 22507.1
 22 06 2015  05 14  -14.4783 17979.3 -13539.0 -36.9809 22506.9
 22 06 2015  05 15  -14.4780 17979.6 -13539.0 -36.9803 22507.1
 22 06 2015  05 16  -14.4777 17979.9 -13538.3 -36.9784 22507.0
 22 06 2015  05 17  -14.4775 17980.0 -13538.6 -36.9789 22507.2
 22 06 2015  05 18  -14.4773 17980.0 -13538.8 -36.9794 22507.3
 22 06 2015  05 19  -14.4773 17979.8 -13538.8 -36.9796 22507.1
 22 06 2015  05 20  -14.4775 17979.6 -13538.7 -36.9797 22506.9
 22 06 2015  05 21  -14.4779 17979.9 -13538.7 -36.9795 22507.2
 22 06 2015  05 22  -14.4776 17980.5 -13539.1 -36.9791 22507.9
 22 06 2015  05 23  -14.4765 17981.3 -13539.1 -36.9780 22508.5
 22 06 2015  05 24  -14.4753 17982.0 -13538.8 -36.9764 22508.9
 22 06 2015  05 25  -14.4745 17982.4 -13539.3 -36.9767 22509.5
 22 06 2015  05 26  -14.4743 17982.4 -13538.8 -36.9758 22509.2
 22 06 2015  05 27  -14.4745 17981.8 -13538.6 -36.9763 22508.7
 22 06 2015  05 28  -14.4751 17981.3 -13538.8 -36.9774 22508.4
 22 06 2015  05 29  -14.4761 17981.0 -13538.6 -36.9774 22508.0
 22 06 2015  05 30  -14.4774 17980.7 -13538.6 -36.9779 22507.8
 22 06 2015  05 31  -14.4788 17980.4 -13538.7 -36.9785 22507.6
 22 06 2015  05 32  -14.4798 17980.3 -13539.0 -36.9794 22507.7
 22 06 2015  05 33  -14.4811 17980.1 -13538.8 -36.9794 22507.4
 22 06 2015  05 34  -14.4823 17979.9 -13538.4 -36.9787 22507.0
 22 06 2015  05 35  -14.4828 17980.3 -13539.4 -36.9802 22507.9
 22 06 2015  05 36  -14.4826 17980.5 -13538.8 -36.9786 22507.7
 22 06 2015  05 37  -14.4822 17980.5 -13539.1 -36.9792 22507.9
 22 06 2015  05 38  -14.4820 17980.6 -13539.2 -36.9793 22508.0
 22 06 2015  05 39  -14.4825 17980.3 -13539.2 -36.9797 22507.8
 22 06 2015  05 40  -14.4833 17979.9 -13538.7 -36.9794 22507.2
 22 06 2015  05 41  -14.4843 17979.6 -13538.8 -36.9799 22507.0
 22 06 2015  05 42  -14.4854 17979.5 -13539.3 -36.9811 22507.2
 22 06 2015  05 43  -14.4865 17979.4 -13539.0 -36.9806 22507.0
 22 06 2015  05 44  -14.4869 17979.5 -13539.4 -36.9813 22507.2
 22 06 2015  05 45  -14.4912 17981.3 -13540.0 -36.9798 22509.0
 22 06 2015  05 46  -14.4821 17989.2 -13541.0 -36.9698 22516.0
 22 06 2015  05 47  -14.4673 17998.3 -13542.1 -36.9580 22523.9
 22 06 2015  05 48  -14.4594 18003.0 -13542.3 -36.9512 22527.8
 22 06 2015  05 49  -14.4597 18002.0 -13540.5 -36.9491 22525.9
 22 06 2015  05 50  -14.4623 18001.0 -13539.4 -36.9485 22524.5
 22 06 2015  05 51  -14.4659 17998.9 -13538.0 -36.9488 22521.9
 22 06 2015  05 52  -14.4705 17996.8 -13537.6 -36.9513 22520.0
 22 06 2015  05 53  -14.4735 17994.4 -13537.5 -36.9547 22518.0
 22 06 2015  05 54  -14.4789 17992.4 -13536.7 -36.9562 22516.0
 22 06 2015  05 55  -14.4849 17990.3 -13536.6 -36.9591 22514.2
 22 06 2015  05 56  -14.4897 17988.7 -13536.6 -36.9616 22512.9
 22 06 2015  05 57  -14.4910 17988.6 -13537.0 -36.9626 22513.2
 22 06 2015  05 58  -14.4927 17988.1 -13536.9 -36.9631 22512.7
 22 06 2015  05 59  -14.4933 17987.5 -13537.1 -36.9644 22512.3
 22 06 2015  06 00  -14.4928 17986.9 -13537.0 -36.9651 22511.8
 22 06 2015  06 01  -14.4929 17986.3 -13537.1 -36.9663 22511.3
 22 06 2015  06 02  -14.4923 17985.1 -13537.1 -36.9682 22510.4
 22 06 2015  06 03  -14.4915 17984.5 -13537.4 -36.9697 22510.1
 22 06 2015  06 04  -14.4914 17983.8 -13537.1 -36.9700 22509.3
 22 06 2015  06 05  -14.4913 17983.4 -13537.6 -36.9717 22509.3
 22 06 2015  06 06  -14.4913 17983.3 -13538.1 -36.9731 22509.5
 22 06 2015  06 07  -14.4905 17983.5 -13537.3 -36.9710 22509.3
 22 06 2015  06 08  -14.4892 17983.5 -13537.3 -36.9709 22509.2
 22 06 2015  06 09  -14.4889 17983.3 -13538.0 -36.9727 22509.4
 22 06 2015  06 10  -14.4899 17982.4 -13538.3 -36.9747 22509.0
 22 06 2015  06 11  -14.4896 17982.2 -13537.7 -36.9737 22508.4
 22 06 2015  06 12  -14.4905 17982.2 -13537.8 -36.9739 22508.5
 22 06 2015  06 13  -14.4895 17982.6 -13538.2 -36.9743 22509.0
 22 06 2015  06 14  -14.4880 17983.3 -13538.3 -36.9732 22509.7
 22 06 2015  06 15  -14.4883 17983.3 -13538.2 -36.9731 22509.6
 22 06 2015  06 16  -14.4903 17982.1 -13537.9 -36.9743 22508.4
 22 06 2015  06 17  -14.4929 17980.7 -13536.8 -36.9743 22506.7
 22 06 2015  06 18  -14.4923 17980.3 -13537.5 -36.9763 22506.8
 22 06 2015  06 19  -14.4916 17981.1 -13538.1 -36.9762 22507.7
 22 06 2015  06 20  -14.4920 17980.9 -13538.2 -36.9768 22507.6
 22 06 2015  06 21  -14.4918 17980.7 -13538.3 -36.9773 22507.6
 22 06 2015  06 22  -14.4926 17981.0 -13538.1 -36.9765 22507.7
 22 06 2015  06 23  -14.4926 17980.9 -13537.8 -36.9759 22507.4
 22 06 2015  06 24  -14.4928 17980.6 -13538.4 -36.9777 22507.6
 22 06 2015  06 25  -14.4930 17980.9 -13538.5 -36.9775 22507.9
 22 06 2015  06 26  -14.4943 17980.2 -13538.4 -36.9783 22507.3
 22 06 2015  06 27  -14.4944 17980.3 -13538.1 -36.9775 22507.2
 22 06 2015  06 28  -14.4943 17980.8 -13538.6 -36.9778 22507.9
 22 06 2015  06 29  -14.4943 17980.7 -13538.4 -36.9775 22507.7
 22 06 2015  06 30  -14.4934 17981.1 -13538.8 -36.9776 22508.2
 22 06 2015  06 31  -14.4938 17981.3 -13538.4 -36.9766 22508.2
 22 06 2015  06 32  -14.4945 17981.2 -13538.6 -36.9770 22508.1
 22 06 2015  06 33  -14.4965 17981.2 -13538.7 -36.9772 22508.2
 22 06 2015  06 34  -14.4974 17981.6 -13538.8 -36.9770 22508.6
 22 06 2015  06 35  -14.4981 17981.3 -13538.7 -36.9773 22508.3
 22 06 2015  06 36  -14.4988 17981.3 -13538.8 -36.9774 22508.3
 22 06 2015  06 37  -14.5011 17980.0 -13538.6 -36.9790 22507.1
 22 06 2015  06 38  -14.5038 17978.8 -13538.2 -36.9801 22506.0
 22 06 2015  06 39  -14.5047 17978.2 -13538.6 -36.9818 22505.8
 22 06 2015  06 40  -14.5057 17977.7 -13538.4 -36.9821 22505.3
 22 06 2015  06 41  -14.5080 17977.6 -13538.7 -36.9829 22505.3
 22 06 2015  06 42  -14.5108 17977.4 -13538.8 -36.9833 22505.2
 22 06 2015  06 43  -14.5111 17977.5 -13538.7 -36.9831 22505.3
 22 06 2015  06 44  -14.5104 17978.4 -13539.0 -36.9822 22506.2
 22 06 2015  06 45  -14.5099 17978.7 -13538.6 -36.9809 22506.2
 22 06 2015  06 46  -14.5103 17978.9 -13538.9 -36.9813 22506.5
 22 06 2015  06 47  -14.5106 17978.7 -13539.3 -36.9824 22506.6
 22 06 2015  06 48  -14.5109 17978.1 -13539.1 -36.9829 22506.0
 22 06 2015  06 49  -14.5109 17977.8 -13538.8 -36.9829 22505.6
 22 06 2015  06 50  -14.5099 17977.6 -13538.8 -36.9831 22505.4
 22 06 2015  06 51  -14.5091 17977.7 -13538.9 -36.9831 22505.6
 22 06 2015  06 52  -14.5088 17978.0 -13539.3 -36.9833 22506.0
 22 06 2015  06 53  -14.5078 17978.4 -13539.2 -36.9828 22506.3
 22 06 2015  06 54  -14.5097 17977.7 -13538.8 -36.9830 22505.5
 22 06 2015  06 55  -14.5103 17978.3 -13539.3 -36.9830 22506.2
 22 06 2015  06 56  -14.5110 17977.9 -13538.6 -36.9822 22505.5
 22 06 2015  06 57  -14.5102 17978.5 -13539.3 -36.9826 22506.4
 22 06 2015  06 58  -14.5101 17978.2 -13539.3 -36.9830 22506.2
 22 06 2015  06 59  -14.5099 17977.9 -13539.2 -36.9834 22505.9
 22 06 2015  07 00  -14.5103 17976.9 -13539.1 -36.9848 22505.1
 22 06 2015  07 01  -14.5097 17977.0 -13539.4 -36.9851 22505.2
 22 06 2015  07 02  -14.5096 17977.4 -13539.2 -36.9841 22505.5
 22 06 2015  07 03  -14.5076 17978.1 -13539.6 -36.9839 22506.3
 22 06 2015  07 04  -14.5057 17978.6 -13539.0 -36.9818 22506.3
 22 06 2015  07 05  -14.5039 17979.2 -13539.0 -36.9810 22506.8
 22 06 2015  07 06  -14.5038 17979.8 -13539.8 -36.9817 22507.8
 22 06 2015  07 07  -14.5035 17980.0 -13539.2 -36.9802 22507.6
 22 06 2015  07 08  -14.5025 17980.5 -13538.9 -36.9788 22507.8
 22 06 2015  07 09  -14.5013 17980.4 -13539.0 -36.9792 22507.8
 22 06 2015  07 10  -14.4997 17981.0 -13539.2 -36.9786 22508.4
 22 06 2015  07 11  -14.5004 17981.0 -13538.7 -36.9777 22508.0
 22 06 2015  07 12  -14.5004 17981.4 -13539.2 -36.9781 22508.7
 22 06 2015  07 13  -14.5009 17982.8 -13538.4 -36.9743 22509.3
 22 06 2015  07 14  -14.5018 17983.6 -13538.9 -36.9740 22510.2
 22 06 2015  07 15  -14.5027 17984.6 -13539.1 -36.9729 22511.2
 22 06 2015  07 16  -14.5039 17985.7 -13539.0 -36.9711 22512.0
 22 06 2015  07 17  -14.5037 17987.0 -13538.7 -36.9684 22512.8
 22 06 2015  07 18  -14.5039 17988.0 -13538.8 -36.9672 22513.7
 22 06 2015  07 19  -14.5040 17988.5 -13538.4 -36.9656 22513.8
 22 06 2015  07 20  -14.5068 17987.5 -13538.5 -36.9672 22513.1
 22 06 2015  07 21  -14.5100 17986.4 -13538.4 -36.9687 22512.2
 22 06 2015  07 22  -14.5118 17985.8 -13537.5 -36.9679 22511.2
 22 06 2015  07 23  -14.5114 17985.3 -13538.2 -36.9699 22511.2
 22 06 2015  07 24  -14.5114 17984.8 -13537.7 -36.9697 22510.5
 22 06 2015  07 25  -14.5120 17984.7 -13537.4 -36.9694 22510.2
 22 06 2015  07 26  -14.5109 17984.5 -13537.9 -36.9705 22510.4
 22 06 2015  07 27  -14.5081 17985.2 -13537.7 -36.9692 22510.8
 22 06 2015  07 28  -14.5051 17985.7 -13538.0 -36.9691 22511.4
 22 06 2015  07 29  -14.5009 17985.9 -13537.3 -36.9674 22511.1
 22 06 2015  07 30  -14.4965 17985.3 -13537.8 -36.9692 22510.9
 22 06 2015  07 31  -14.4941 17983.9 -13536.7 -36.9692 22509.2
 22 06 2015  07 32  -14.4922 17983.2 -13537.6 -36.9721 22509.2
 22 06 2015  07 33  -14.4911 17982.5 -13537.2 -36.9724 22508.4
 22 06 2015  07 34  -14.4907 17981.9 -13537.3 -36.9734 22508.0
 22 06 2015  07 35  -14.4905 17982.0 -13537.3 -36.9733 22508.0
 22 06 2015  07 36  -14.4895 17982.3 -13537.4 -36.9730 22508.3
 22 06 2015  07 37  -14.4890 17982.6 -13537.6 -36.9730 22508.7
 22 06 2015  07 38  -14.4866 17983.8 -13537.8 -36.9716 22509.8
 22 06 2015  07 39  -14.4850 17986.0 -13538.4 -36.9695 22511.9
 22 06 2015  07 40  -14.4836 17988.3 -13538.0 -36.9650 22513.5
 22 06 2015  07 41  -14.4824 17989.0 -13537.9 -36.9638 22514.0
 22 06 2015  07 42  -14.4833 17988.8 -13538.1 -36.9644 22513.9
 22 06 2015  07 43  -14.4853 17988.9 -13537.5 -36.9630 22513.7
 22 06 2015  07 44  -14.4864 17989.6 -13537.4 -36.9619 22514.1
 22 06 2015  07 45  -14.4867 17990.5 -13537.5 -36.9607 22514.9
 22 06 2015  07 46  -14.4854 17992.2 -13537.7 -36.9584 22516.4
 22 06 2015  07 47  -14.4832 17992.5 -13537.6 -36.9578 22516.6
 22 06 2015  07 48  -14.4829 17991.4 -13537.1 -36.9583 22515.4
 22 06 2015  07 49  -14.4831 17991.9 -13536.4 -36.9563 22515.3
 22 06 2015  07 50  -14.4829 17992.5 -13536.9 -36.9564 22516.2
 22 06 2015  07 51  -14.4828 17993.4 -13536.5 -36.9543 22516.6
 22 06 2015  07 52  -14.4824 17993.5 -13537.1 -36.9552 22517.1
 22 06 2015  07 53  -14.4833 17992.6 -13536.5 -36.9554 22516.0
 22 06 2015  07 54  -14.4825 17992.9 -13537.0 -36.9560 22516.6
 22 06 2015  07 55  -14.4828 17993.3 -13536.3 -36.9540 22516.4
 22 06 2015  07 56  -14.4825 17993.7 -13536.7 -36.9542 22517.0
 22 06 2015  07 57  -14.4823 17993.7 -13536.6 -36.9538 22517.0
 22 06 2015  07 58  -14.4819 17994.0 -13536.7 -36.9536 22517.3
 22 06 2015  07 59  -14.4820 17993.8 -13536.6 -36.9537 22517.0
 22 06 2015  08 00  -14.4818 17993.9 -13536.5 -36.9534 22517.0
 22 06 2015  08 01  -14.4822 17993.8 -13536.2 -36.9530 22516.8
 22 06 2015  08 02  -14.4821 17993.9 -13536.5 -36.9534 22517.0
 22 06 2015  08 03  -14.4828 17994.1 -13536.4 -36.9529 22517.1
 22 06 2015  08 04  -14.4831 17994.5 -13536.6 -36.9527 22517.6
 22 06 2015  08 05  -14.4837 17994.3 -13536.3 -36.9525 22517.2
 22 06 2015  08 06  -14.4842 17994.3 -13536.4 -36.9526 22517.3
 22 06 2015  08 07  -14.4846 17994.8 -13536.5 -36.9520 22517.7
 22 06 2015  08 08  -14.4852 17994.7 -13536.4 -36.9519 22517.6
 22 06 2015  08 09  -14.4856 17995.1 -13536.4 -36.9514 22517.9
 22 06 2015  08 10  -14.4862 17995.2 -13536.4 -36.9513 22518.0
 22 06 2015  08 11  -14.4867 17995.2 -13536.4 -36.9512 22518.0
 22 06 2015  08 12  -14.4873 17995.6 -13536.3 -36.9504 22518.3
 22 06 2015  08 13  -14.4877 17995.9 -13536.5 -36.9503 22518.6
 22 06 2015  08 14  -14.4890 17996.0 -13536.3 -36.9499 22518.6
 22 06 2015  08 15  -14.4903 17996.4 -13536.4 -36.9494 22519.0
 22 06 2015  08 16  -14.4918 17996.5 -13536.1 -36.9487 22518.9
 22 06 2015  08 17  -14.4932 17996.4 -13535.9 -36.9484 22518.7
 22 06 2015  08 18  -14.4940 17997.0 -13536.0 -36.9477 22519.2
 22 06 2015  08 19  -14.4944 17996.8 -13536.7 -36.9494 22519.5
 22 06 2015  08 20  -14.4943 17996.2 -13535.9 -36.9487 22518.5
 22 06 2015  08 21  -14.4963 17995.0 -13536.1 -36.9508 22517.7
 22 06 2015  08 22  -14.4984 17995.2 -13535.9 -36.9501 22517.7
 22 06 2015  08 23  -14.4976 17994.9 -13535.9 -36.9507 22517.5
 22 06 2015  08 24  -14.4983 17994.6 -13536.1 -36.9515 22517.4
 22 06 2015  08 25  -14.4996 17995.1 -13536.0 -36.9506 22517.7
 22 06 2015  08 26  -14.4982 17995.4 -13536.0 -36.9501 22517.9
 22 06 2015  08 27  -14.4986 17995.1 -13536.0 -36.9506 22517.8
 22 06 2015  08 28  -14.5006 17995.1 -13536.1 -36.9507 22517.7
 22 06 2015  08 29  -14.5020 17995.1 -13535.7 -36.9499 22517.5
 22 06 2015  08 30  -14.5026 17994.9 -13536.1 -36.9510 22517.6
 22 06 2015  08 31  -14.5039 17994.5 -13535.7 -36.9509 22517.1
 22 06 2015  08 32  -14.5046 17994.8 -13536.1 -36.9513 22517.5
 22 06 2015  08 33  -14.5038 17994.2 -13535.7 -36.9513 22516.8
 22 06 2015  08 34  -14.5041 17994.0 -13535.6 -36.9516 22516.6
 22 06 2015  08 35  -14.5034 17992.9 -13535.6 -36.9531 22515.7
 22 06 2015  08 36  -14.5036 17991.5 -13535.6 -36.9552 22514.6
 22 06 2015  08 37  -14.5047 17990.7 -13535.6 -36.9566 22514.0
 22 06 2015  08 38  -14.5051 17990.5 -13536.0 -36.9575 22514.1
 22 06 2015  08 39  -14.5043 17990.0 -13536.2 -36.9588 22513.8
 22 06 2015  08 40  -14.5036 17988.8 -13535.6 -36.9594 22512.4
 22 06 2015  08 41  -14.5037 17987.8 -13536.1 -36.9620 22511.9
 22 06 2015  08 42  -14.5030 17987.8 -13536.4 -36.9625 22512.1
 22 06 2015  08 43  -14.5008 17987.3 -13536.2 -36.9630 22511.6
 22 06 2015  08 44  -14.4999 17985.9 -13536.4 -36.9655 22510.5
 22 06 2015  08 45  -14.5012 17985.2 -13536.3 -36.9662 22510.0
 22 06 2015  08 46  -14.5010 17985.8 -13537.1 -36.9671 22510.9
 22 06 2015  08 47  -14.5014 17985.2 -13536.9 -36.9675 22510.3
 22 06 2015  08 48  -14.5028 17985.2 -13537.1 -36.9680 22510.5
 22 06 2015  08 49  -14.5046 17985.7 -13537.1 -36.9673 22510.8
 22 06 2015  08 50  -14.5051 17986.4 -13538.0 -36.9678 22511.9
 22 06 2015  08 51  -14.5042 17986.6 -13538.1 -36.9678 22512.2
 22 06 2015  08 52  -14.5042 17987.3 -13537.5 -36.9655 22512.3
 22 06 2015  08 53  -14.5042 17987.5 -13537.5 -36.9653 22512.5
 22 06 2015  08 54  -14.5040 17987.0 -13536.6 -36.9641 22511.6
 22 06 2015  08 55  -14.5048 17986.5 -13536.6 -36.9648 22511.2
 22 06 2015  08 56  -14.5053 17985.8 -13537.0 -36.9667 22510.9
 22 06 2015  08 57  -14.5062 17985.2 -13537.1 -36.9679 22510.4
 22 06 2015  08 58  -14.5071 17984.5 -13536.8 -36.9684 22509.7
 22 06 2015  08 59  -14.5090 17984.2 -13536.9 -36.9691 22509.5
 22 06 2015  09 00  -14.5103 17984.6 -13537.2 -36.9692 22510.1
 22 06 2015  09 01  -14.5110 17984.9 -13537.2 -36.9687 22510.2
 22 06 2015  09 02  -14.5109 17984.8 -13537.4 -36.9692 22510.3
 22 06 2015  09 03  -14.5108 17985.0 -13537.4 -36.9689 22510.5
 22 06 2015  09 04  -14.5104 17985.0 -13537.1 -36.9683 22510.3
 22 06 2015  09 05  -14.5096 17984.7 -13537.2 -36.9689 22510.1
 22 06 2015  09 06  -14.5091 17984.2 -13537.2 -36.9696 22509.7
 22 06 2015  09 07  -14.5091 17982.9 -13537.0 -36.9713 22508.6
 22 06 2015  09 08  -14.5095 17982.4 -13537.0 -36.9721 22508.2
 22 06 2015  09 09  -14.5100 17981.6 -13536.9 -36.9731 22507.5
 22 06 2015  09 10  -14.5110 17981.5 -13537.3 -36.9741 22507.6
 22 06 2015  09 11  -14.5110 17981.8 -13537.8 -36.9747 22508.2
 22 06 2015  09 12  -14.5113 17982.0 -13537.7 -36.9741 22508.3
 22 06 2015  09 13  -14.5116 17982.7 -13537.6 -36.9728 22508.8
 22 06 2015  09 14  -14.5101 17982.7 -13537.8 -36.9732 22508.9
 22 06 2015  09 15  -14.5075 17982.8 -13537.6 -36.9727 22508.8
 22 06 2015  09 16  -14.5049 17983.0 -13537.7 -36.9726 22509.0
 22 06 2015  09 17  -14.5032 17982.2 -13537.5 -36.9735 22508.3
 22 06 2015  09 18  -14.5026 17981.3 -13537.2 -36.9740 22507.4
 22 06 2015  09 19  -14.5006 17980.5 -13537.2 -36.9755 22506.7
 22 06 2015  09 20  -14.4987 17979.6 -13537.1 -36.9766 22506.0
 22 06 2015  09 21  -14.4982 17978.7 -13537.4 -36.9784 22505.4
 22 06 2015  09 22  -14.4987 17978.2 -13537.3 -36.9790 22505.0
 22 06 2015  09 23  -14.4971 17977.6 -13537.1 -36.9796 22504.4
 22 06 2015  09 24  -14.4955 17977.2 -13537.1 -36.9802 22504.1
 22 06 2015  09 25  -14.4939 17976.6 -13537.2 -36.9813 22503.7
 22 06 2015  09 26  -14.4916 17976.1 -13537.4 -36.9824 22503.4
 22 06 2015  09 27  -14.4906 17976.1 -13537.5 -36.9828 22503.4
 22 06 2015  09 28  -14.4906 17976.8 -13537.6 -36.9818 22504.0
 22 06 2015  09 29  -14.4906 17977.2 -13537.7 -36.9813 22504.4
 22 06 2015  09 30  -14.4890 17977.9 -13537.8 -36.9805 22505.0
 22 06 2015  09 31  -14.4864 17977.6 -13537.7 -36.9807 22504.7
 22 06 2015  09 32  -14.4850 17977.1 -13537.7 -36.9816 22504.3
 22 06 2015  09 33  -14.4844 17976.7 -13537.4 -36.9816 22503.8
 22 06 2015  09 34  -14.4850 17976.8 -13537.4 -36.9815 22504.0
 22 06 2015  09 35  -14.4858 17977.7 -13537.6 -36.9805 22504.8
 22 06 2015  09 36  -14.4860 17977.9 -13537.5 -36.9798 22504.9
 22 06 2015  09 37  -14.4852 17978.2 -13537.4 -36.9794 22505.1
 22 06 2015  09 38  -14.4840 17978.4 -13537.4 -36.9790 22505.3
 22 06 2015  09 39  -14.4825 17978.1 -13537.0 -36.9786 22504.8
 22 06 2015  09 40  -14.4806 17977.8 -13536.9 -36.9790 22504.4
 22 06 2015  09 41  -14.4796 17978.1 -13537.4 -36.9794 22505.0
 22 06 2015  09 42  -14.4795 17978.4 -13537.2 -36.9786 22505.1
 22 06 2015  09 43  -14.4790 17978.6 -13537.3 -36.9784 22505.3
 22 06 2015  09 44  -14.4790 17978.9 -13537.6 -36.9785 22505.7
 22 06 2015  09 45  -14.4777 17979.3 -13537.3 -36.9775 22505.8
 22 06 2015  09 46  -14.4765 17978.7 -13537.2 -36.9780 22505.3
 22 06 2015  09 47  -14.4761 17978.8 -13537.2 -36.9780 22505.4
 22 06 2015  09 48  -14.4757 17978.6 -13537.2 -36.9784 22505.3
 22 06 2015  09 49  -14.4760 17978.2 -13536.8 -36.9782 22504.7
 22 06 2015  09 50  -14.4762 17977.5 -13536.9 -36.9794 22504.2
 22 06 2015  09 51  -14.4777 17977.4 -13536.7 -36.9792 22504.0
 22 06 2015  09 52  -14.4784 17977.4 -13537.1 -36.9798 22504.2
 22 06 2015  09 53  -14.4799 17977.1 -13536.9 -36.9800 22503.9
 22 06 2015  09 54  -14.4813 17976.8 -13537.0 -36.9805 22503.7
 22 06 2015  09 55  -14.4827 17976.6 -13536.8 -36.9806 22503.4
 22 06 2015  09 56  -14.4843 17976.6 -13537.3 -36.9815 22503.7
 22 06 2015  09 57  -14.4863 17975.0 -13536.6 -36.9825 22502.0
 22 06 2015  09 58  -14.4890 17974.1 -13536.8 -36.9843 22501.4
 22 06 2015  09 59  -14.4907 17973.5 -13536.5 -36.9848 22500.7
 22 06 2015  10 00  -14.4914 17973.7 -13536.3 -36.9840 22500.7
 22 06 2015  10 01  -14.4915 17974.2 -13536.0 -36.9826 22501.0
 22 06 2015  10 02  -14.4902 17974.8 -13536.1 -36.9819 22501.5
 22 06 2015  10 03  -14.4888 17975.7 -13536.4 -36.9810 22502.5
 22 06 2015  10 04  -14.4869 17976.1 -13536.6 -36.9809 22502.8
 22 06 2015  10 05  -14.4845 17976.3 -13536.4 -36.9802 22502.9
 22 06 2015  10 06  -14.4824 17976.5 -13536.4 -36.9799 22503.1
 22 06 2015  10 07  -14.4804 17976.4 -13536.2 -36.9797 22502.8
 22 06 2015  10 08  -14.4783 17976.1 -13536.1 -36.9799 22502.6
 22 06 2015  10 09  -14.4765 17975.6 -13535.8 -36.9799 22502.0
 22 06 2015  10 10  -14.4754 17975.0 -13535.7 -36.9808 22501.4
 22 06 2015  10 11  -14.4740 17974.9 -13535.7 -36.9808 22501.4
 22 06 2015  10 12  -14.4728 17975.1 -13535.2 -36.9794 22501.3
 22 06 2015  10 13  -14.4714 17975.2 -13535.3 -36.9796 22501.4
 22 06 2015  10 14  -14.4707 17975.0 -13535.7 -36.9808 22501.5
 22 06 2015  10 15  -14.4699 17974.9 -13535.4 -36.9802 22501.2
 22 06 2015  10 16  -14.4691 17974.9 -13535.3 -36.9801 22501.2
 22 06 2015  10 17  -14.4677 17974.9 -13535.4 -36.9802 22501.2
 22 06 2015  10 18  -14.4667 17975.0 -13535.4 -36.9802 22501.3
 22 06 2015  10 19  -14.4658 17975.3 -13535.5 -36.9799 22501.6
 22 06 2015  10 20  -14.4648 17975.2 -13534.9 -36.9787 22501.1
 22 06 2015  10 21  -14.4638 17975.0 -13535.0 -36.9792 22501.1
 22 06 2015  10 22  -14.4629 17974.6 -13534.9 -36.9797 22500.6
 22 06 2015  10 23  -14.4626 17974.4 -13534.3 -36.9789 22500.1
 22 06 2015  10 24  -14.4623 17974.0 -13534.2 -36.9793 22499.8
 22 06 2015  10 25  -14.4618 17974.0 -13535.4 -36.9816 22500.4
 22 06 2015  10 26  -14.4614 17974.1 -13534.9 -36.9804 22500.2
 22 06 2015  10 27  -14.4607 17974.2 -13535.2 -36.9810 22500.5
 22 06 2015  10 28  -14.4601 17973.9 -13534.9 -36.9808 22500.1
 22 06 2015  10 29  -14.4596 17974.0 -13535.1 -36.9809 22500.3
 22 06 2015  10 30  -14.4590 17973.8 -13535.3 -36.9818 22500.3
 22 06 2015  10 31  -14.4590 17974.0 -13535.1 -36.9810 22500.3
 22 06 2015  10 32  -14.4584 17974.3 -13535.1 -36.9806 22500.5
 22 06 2015  10 33  -14.4572 17974.5 -13535.1 -36.9803 22500.7
 22 06 2015  10 34  -14.4557 17974.7 -13535.1 -36.9800 22500.8
 22 06 2015  10 35  -14.4545 17974.5 -13535.2 -36.9804 22500.8
 22 06 2015  10 36  -14.4535 17974.8 -13535.3 -36.9801 22501.1
 22 06 2015  10 37  -14.4520 17974.9 -13534.9 -36.9793 22500.9
 22 06 2015  10 38  -14.4504 17975.1 -13535.2 -36.9796 22501.2
 22 06 2015  10 39  -14.4490 17975.2 -13535.0 -36.9791 22501.2
 22 06 2015  10 40  -14.4474 17975.5 -13535.8 -36.9802 22502.0
 22 06 2015  10 41  -14.4460 17975.8 -13535.5 -36.9791 22502.0
 22 06 2015  10 42  -14.4440 17976.1 -13535.2 -36.9780 22502.1
 22 06 2015  10 43  -14.4429 17976.8 -13535.3 -36.9772 22502.7
 22 06 2015  10 44  -14.4406 17977.2 -13535.3 -36.9765 22503.0
 22 06 2015  10 45  -14.4382 17977.2 -13535.3 -36.9766 22503.0
 22 06 2015  10 46  -14.4377 17976.3 -13535.3 -36.9778 22502.2
 22 06 2015  10 47  -14.4385 17975.9 -13535.1 -36.9782 22501.8
 22 06 2015  10 48  -14.4374 17976.1 -13535.2 -36.9780 22502.0
 22 06 2015  10 49  -14.4351 17976.3 -13535.5 -36.9784 22502.4
 22 06 2015  10 50  -14.4334 17977.6 -13535.2 -36.9757 22503.2
 22 06 2015  10 51  -14.4316 17978.5 -13535.6 -36.9752 22504.2
 22 06 2015  10 52  -14.4308 17978.8 -13535.4 -36.9742 22504.3
 22 06 2015  10 53  -14.4295 17978.7 -13535.3 -36.9743 22504.1
 22 06 2015  10 54  -14.4282 17978.4 -13535.2 -36.9745 22503.9
 22 06 2015  10 55  -14.4279 17977.9 -13535.0 -36.9747 22503.4
 22 06 2015  10 56  -14.4282 17978.0 -13536.0 -36.9766 22504.0
 22 06 2015  10 57  -14.4283 17978.3 -13535.6 -36.9755 22504.1
 22 06 2015  10 58  -14.4277 17978.7 -13536.2 -36.9760 22504.7
 22 06 2015  10 59  -14.4277 17978.8 -13535.9 -36.9753 22504.6
 22 06 2015  11 00  -14.4279 17978.7 -13535.8 -36.9753 22504.5
 22 06 2015  11 01  -14.4271 17978.6 -13536.0 -36.9758 22504.5
 22 06 2015  11 02  -14.4279 17979.0 -13536.3 -36.9757 22505.0
 22 06 2015  11 03  -14.4281 17979.7 -13536.3 -36.9747 22505.5
 22 06 2015  11 04  -14.4280 17980.6 -13536.8 -36.9744 22506.6
 22 06 2015  11 05  -14.4277 17981.5 -13536.7 -36.9727 22507.3
 22 06 2015  11 06  -14.4270 17981.6 -13536.6 -36.9724 22507.3
 22 06 2015  11 07  -14.4262 17980.7 -13536.4 -36.9734 22506.4
 22 06 2015  11 08  -14.4270 17980.0 -13536.2 -36.9739 22505.8
 22 06 2015  11 09  -14.4281 17980.1 -13536.3 -36.9742 22505.9
 22 06 2015  11 10  -14.4285 17980.3 -13536.6 -36.9745 22506.2
 22 06 2015  11 11  -14.4283 17980.2 -13536.3 -36.9739 22506.0
 22 06 2015  11 12  -14.4283 17980.2 -13536.7 -36.9748 22506.2
 22 06 2015  11 13  -14.4282 17980.2 -13536.1 -36.9735 22505.9
 22 06 2015  11 14  -14.4289 17980.4 -13536.7 -36.9744 22506.3
 22 06 2015  11 15  -14.4294 17980.6 -13537.1 -36.9751 22506.8
 22 06 2015  11 16  -14.4289 17981.0 -13537.0 -36.9743 22507.1
 22 06 2015  11 17  -14.4286 17981.2 -13537.6 -36.9751 22507.6
 22 06 2015  11 18  -14.4284 17981.3 -13537.4 -36.9746 22507.5
 22 06 2015  11 19  -14.4281 17981.6 -13537.1 -36.9735 22507.6
 22 06 2015  11 20  -14.4281 17982.0 -13537.1 -36.9729 22507.9
 22 06 2015  11 21  -14.4281 17982.5 -13537.4 -36.9728 22508.5
 22 06 2015  11 22  -14.4275 17982.6 -13537.5 -36.9727 22508.7
 22 06 2015  11 23  -14.4273 17983.1 -13537.2 -36.9715 22508.8
 22 06 2015  11 24  -14.4272 17983.5 -13537.4 -36.9712 22509.3
 22 06 2015  11 25  -14.4270 17983.4 -13536.8 -36.9701 22508.8
 22 06 2015  11 26  -14.4272 17983.7 -13537.0 -36.9699 22509.2
 22 06 2015  11 27  -14.4276 17983.9 -13536.5 -36.9686 22509.0
 22 06 2015  11 28  -14.4274 17983.3 -13536.9 -36.9705 22508.8
 22 06 2015  11 29  -14.4288 17982.7 -13536.9 -36.9713 22508.3
 22 06 2015  11 30  -14.4302 17982.5 -13537.1 -36.9721 22508.3
 22 06 2015  11 31  -14.4316 17982.7 -13536.4 -36.9704 22508.1
 22 06 2015  11 32  -14.4311 17983.1 -13536.7 -36.9704 22508.5
 22 06 2015  11 33  -14.4307 17983.8 -13537.1 -36.9701 22509.4
 22 06 2015  11 34  -14.4301 17984.1 -13536.7 -36.9689 22509.4
 22 06 2015  11 35  -14.4295 17984.6 -13536.6 -36.9679 22509.7
 22 06 2015  11 36  -14.4289 17984.7 -13536.7 -36.9679 22509.9
 22 06 2015  11 37  -14.4290 17985.2 -13536.4 -36.9665 22510.1
 22 06 2015  11 38  -14.4291 17985.5 -13536.8 -36.9670 22510.5
 22 06 2015  11 39  -14.4301 17986.2 -13536.8 -36.9659 22511.1
 22 06 2015  11 40  -14.4294 17986.7 -13537.2 -36.9659 22511.7
 22 06 2015  11 41  -14.4292 17986.7 -13536.2 -36.9637 22511.1
 22 06 2015  11 42  -14.4290 17986.6 -13536.0 -36.9636 22510.9
 22 06 2015  11 43  -14.4292 17986.7 -13536.2 -36.9638 22511.1
 22 06 2015  11 44  -14.4291 17987.0 -13536.1 -36.9632 22511.3
 22 06 2015  11 45  -14.4290 17987.7 -13536.1 -36.9621 22511.8
 22 06 2015  11 46  -14.4277 17987.9 -13536.0 -36.9616 22512.0
 22 06 2015  11 47  -14.4278 17988.0 -13536.0 -36.9615 22512.0
 22 06 2015  11 48  -14.4280 17987.9 -13535.8 -36.9611 22511.8
 22 06 2015  11 49  -14.4275 17988.1 -13535.6 -36.9606 22511.9
 22 06 2015  11 50  -14.4271 17988.8 -13535.9 -36.9600 22512.5
 22 06 2015  11 51  -14.4265 17989.6 -13535.9 -36.9588 22513.3
 22 06 2015  11 52  -14.4263 17990.0 -13535.9 -36.9582 22513.6
 22 06 2015  11 53  -14.4264 17990.1 -13535.8 -36.9578 22513.6
 22 06 2015  11 54  -14.4267 17989.9 -13535.5 -36.9576 22513.3
 22 06 2015  11 55  -14.4268 17990.0 -13535.5 -36.9574 22513.3
 22 06 2015  11 56  -14.4277 17989.9 -13535.4 -36.9572 22513.2
 22 06 2015  11 57  -14.4285 17989.9 -13535.2 -36.9569 22513.1
 22 06 2015  11 58  -14.4290 17989.8 -13535.4 -36.9573 22513.1
 22 06 2015  11 59  -14.4293 17990.2 -13535.1 -36.9562 22513.2
 22 06 2015  12 00  -14.4297 17990.4 -13535.2 -36.9560 22513.5
 22 06 2015  12 01  -14.4306 17990.2 -13535.0 -36.9560 22513.2
 22 06 2015  12 02  -14.4315 17990.3 -13534.9 -36.9558 22513.2
 22 06 2015  12 03  -14.4331 17989.6 -13534.6 -36.9562 22512.5
 22 06 2015  12 04  -14.4347 17989.5 -13534.6 -36.9563 22512.4
 22 06 2015  12 05  -14.4349 17990.1 -13534.8 -36.9559 22513.0
 22 06 2015  12 06  -14.4350 17990.3 -13534.6 -36.9551 22513.0
 22 06 2015  12 07  -14.4349 17990.6 -13534.9 -36.9553 22513.5
 22 06 2015  12 08  -14.4358 17990.4 -13534.7 -36.9552 22513.1
 22 06 2015  12 09  -14.4369 17990.0 -13534.4 -36.9552 22512.7
 22 06 2015  12 10  -14.4374 17990.1 -13534.3 -36.9547 22512.7
 22 06 2015  12 11  -14.4371 17990.5 -13534.0 -36.9537 22512.8
 22 06 2015  12 12  -14.4371 17990.5 -13534.7 -36.9549 22513.3
 22 06 2015  12 13  -14.4377 17990.3 -13534.2 -36.9543 22512.8
 22 06 2015  12 14  -14.4389 17990.2 -13534.1 -36.9542 22512.6
 22 06 2015  12 15  -14.4396 17990.3 -13534.4 -36.9547 22512.9
 22 06 2015  12 16  -14.4406 17989.9 -13534.1 -36.9547 22512.5
 22 06 2015  12 17  -14.4416 17989.9 -13534.4 -36.9553 22512.6
 22 06 2015  12 18  -14.4427 17990.4 -13534.4 -36.9545 22513.0
 22 06 2015  12 19  -14.4444 17990.5 -13534.1 -36.9538 22512.9
 22 06 2015  12 20  -14.4456 17990.4 -13534.4 -36.9544 22513.0
 22 06 2015  12 21  -14.4470 17990.7 -13534.1 -36.9534 22513.0
 22 06 2015  12 22  -14.4477 17991.3 -13534.1 -36.9525 22513.5
 22 06 2015  12 23  -14.4482 17991.6 -13534.1 -36.9521 22513.7
 22 06 2015  12 24  -14.4491 17991.5 -13533.9 -36.9517 22513.6
 22 06 2015  12 25  -14.4494 17991.6 -13533.7 -36.9513 22513.6
 22 06 2015  12 26  -14.4500 17991.4 -13533.7 -36.9516 22513.3
 22 06 2015  12 27  -14.4507 17991.6 -13533.6 -36.9511 22513.5
 22 06 2015  12 28  -14.4519 17991.4 -13533.6 -36.9512 22513.3
 22 06 2015  12 29  -14.4544 17991.0 -13532.6 -36.9499 22512.4
 22 06 2015  12 30  -14.4548 17990.9 -13533.0 -36.9508 22512.5
 22 06 2015  12 31  -14.4554 17991.3 -13532.9 -36.9501 22512.9
 22 06 2015  12 32  -14.4564 17990.6 -13533.2 -36.9517 22512.4
 22 06 2015  12 33  -14.4575 17990.2 -13533.3 -36.9527 22512.2
 22 06 2015  12 34  -14.4592 17989.2 -13532.9 -36.9532 22511.1
 22 06 2015  12 35  -14.4603 17988.4 -13532.7 -36.9541 22510.4
 22 06 2015  12 36  -14.4622 17988.1 -13532.6 -36.9544 22510.1
 22 06 2015  12 37  -14.4628 17988.0 -13533.1 -36.9556 22510.3
 22 06 2015  12 38  -14.4633 17988.4 -13533.0 -36.9547 22510.5
 22 06 2015  12 39  -14.4634 17987.9 -13533.2 -36.9560 22510.3
 22 06 2015  12 40  -14.4629 17987.2 -13533.8 -36.9581 22510.0
 22 06 2015  12 41  -14.4635 17986.9 -13533.0 -36.9570 22509.3
 22 06 2015  12 42  -14.4657 17985.8 -13533.5 -36.9597 22508.7
 22 06 2015  12 43  -14.4662 17985.9 -13533.3 -36.9592 22508.7
 22 06 2015  12 44  -14.4666 17986.5 -13533.8 -36.9592 22509.5
 22 06 2015  12 45  -14.4654 17987.2 -13534.1 -36.9587 22510.2
 22 06 2015  12 46  -14.4639 17987.5 -13534.3 -36.9587 22510.6
 22 06 2015  12 47  -14.4617 17987.6 -13533.6 -36.9571 22510.3
 22 06 2015  12 48  -14.4613 17987.1 -13533.4 -36.9574 22509.7
 22 06 2015  12 49  -14.4617 17985.9 -13533.7 -36.9599 22509.0
 22 06 2015  12 50  -14.4638 17985.2 -13533.6 -36.9608 22508.3
 22 06 2015  12 51  -14.4667 17984.1 -13532.9 -36.9611 22507.1
 22 06 2015  12 52  -14.4694 17983.7 -13533.5 -36.9630 22507.1
 22 06 2015  12 53  -14.4707 17984.6 -13533.2 -36.9610 22507.6
 22 06 2015  12 54  -14.4717 17985.9 -13533.8 -36.9602 22509.0
 22 06 2015  12 55  -14.4708 17985.2 -13533.4 -36.9604 22508.3
 22 06 2015  12 56  -14.4712 17984.8 -13533.3 -36.9610 22507.9
 22 06 2015  12 57  -14.4735 17983.5 -13532.9 -36.9619 22506.6
 22 06 2015  12 58  -14.4747 17984.4 -13533.1 -36.9609 22507.4
 22 06 2015  12 59  -14.4750 17984.7 -13532.7 -36.9598 22507.5
 22 06 2015  13 00  -14.4734 17985.8 -13533.1 -36.9589 22508.5
 22 06 2015  13 01  -14.4716 17987.6 -13533.5 -36.9570 22510.2
 22 06 2015  13 02  -14.4714 17986.7 -13532.3 -36.9559 22508.8
 22 06 2015  13 03  -14.4716 17987.1 -13532.4 -36.9555 22509.2
 22 06 2015  13 04  -14.4720 17987.2 -13532.3 -36.9552 22509.1
 22 06 2015  13 05  -14.4730 17985.9 -13532.4 -36.9573 22508.1
 22 06 2015  13 06  -14.4725 17986.2 -13532.3 -36.9567 22508.4
 22 06 2015  13 07  -14.4718 17986.5 -13532.4 -36.9564 22508.7
 22 06 2015  13 08  -14.4728 17986.5 -13531.8 -36.9553 22508.3
 22 06 2015  13 09  -14.4708 17986.9 -13532.5 -36.9559 22509.1
 22 06 2015  13 10  -14.4700 17987.6 -13532.1 -36.9542 22509.4
 22 06 2015  13 11  -14.4681 17987.8 -13532.6 -36.9549 22509.8
 22 06 2015  13 12  -14.4666 17988.1 -13532.3 -36.9539 22509.9
 22 06 2015  13 13  -14.4660 17989.2 -13531.7 -36.9508 22510.4
 22 06 2015  13 14  -14.4661 17989.5 -13531.4 -36.9497 22510.5
 22 06 2015  13 15  -14.4647 17990.1 -13532.3 -36.9507 22511.5
 22 06 2015  13 16  -14.4642 17990.6 -13531.4 -36.9481 22511.4
 22 06 2015  13 17  -14.4645 17991.1 -13531.5 -36.9477 22511.8
 22 06 2015  13 18  -14.4647 17991.1 -13530.9 -36.9463 22511.5
 22 06 2015  13 19  -14.4642 17991.8 -13530.9 -36.9453 22512.0
 22 06 2015  13 20  -14.4641 17991.9 -13530.2 -36.9438 22511.6
 22 06 2015  13 21  -14.4640 17991.8 -13531.0 -36.9454 22512.1
 22 06 2015  13 22  -14.4644 17991.0 -13530.0 -36.9446 22510.8
 22 06 2015  13 23  -14.4649 17990.3 -13529.5 -36.9447 22510.0
 22 06 2015  13 24  -14.4659 17990.3 -13530.1 -36.9459 22510.3
 22 06 2015  13 25  -14.4681 17989.2 -13529.6 -36.9465 22509.1
 22 06 2015  13 26  -14.4695 17988.7 -13529.6 -36.9473 22508.7
 22 06 2015  13 27  -14.4694 17989.5 -13529.7 -36.9463 22509.4
 22 06 2015  13 28  -14.4705 17989.3 -13529.9 -36.9470 22509.4
 22 06 2015  13 29  -14.4712 17988.9 -13529.3 -36.9465 22508.8
 22 06 2015  13 30  -14.4704 17989.0 -13529.7 -36.9471 22509.0
 22 06 2015  13 31  -14.4706 17988.9 -13529.6 -36.9471 22508.9
 22 06 2015  13 32  -14.4702 17989.4 -13530.0 -36.9471 22509.6
 22 06 2015  13 33  -14.4698 17990.6 -13530.3 -36.9458 22510.7
 22 06 2015  13 34  -14.4707 17989.9 -13530.0 -36.9465 22509.9
 22 06 2015  13 35  -14.4699 17990.5 -13529.2 -36.9439 22509.9
 22 06 2015  13 36  -14.4698 17990.5 -13529.8 -36.9450 22510.3
 22 06 2015  13 37  -14.4715 17989.9 -13529.4 -36.9451 22509.6
 22 06 2015  13 38  -14.4718 17989.9 -13529.0 -36.9444 22509.3
 22 06 2015  13 39  -14.4723 17990.2 -13529.0 -36.9438 22509.5
 22 06 2015  13 40  -14.4732 17989.8 -13528.8 -36.9440 22509.1
 22 06 2015  13 41  -14.4741 17989.5 -13528.6 -36.9441 22508.7
 22 06 2015  13 42  -14.4752 17989.6 -13528.5 -36.9438 22508.8
 22 06 2015  13 43  -14.4768 17989.5 -13528.4 -36.9438 22508.6
 22 06 2015  13 44  -14.4781 17989.7 -13528.1 -36.9428 22508.7
 22 06 2015  13 45  -14.4799 17989.5 -13528.0 -36.9429 22508.4
 22 06 2015  13 46  -14.4812 17989.9 -13527.5 -36.9412 22508.5
 22 06 2015  13 47  -14.4811 17990.2 -13528.3 -36.9423 22509.2
 22 06 2015  13 48  -14.4830 17989.5 -13527.3 -36.9414 22508.0
 22 06 2015  13 49  -14.4850 17989.6 -13526.4 -36.9394 22507.5
 22 06 2015  13 50  -14.4845 17990.5 -13526.9 -36.9391 22508.5
 22 06 2015  13 51  -14.4852 17990.0 -13526.9 -36.9398 22508.2
 22 06 2015  13 52  -14.4845 17990.1 -13526.4 -36.9388 22507.9
 22 06 2015  13 53  -14.4842 17990.6 -13526.7 -36.9384 22508.5
 22 06 2015  13 54  -14.4829 17991.4 -13526.4 -36.9368 22508.9
 22 06 2015  13 55  -14.4804 17993.1 -13526.5 -36.9344 22510.4
 22 06 2015  13 56  -14.4788 17994.5 -13527.0 -36.9332 22511.8
 22 06 2015  13 57  -14.4770 17996.1 -13527.0 -36.9307 22513.1
 22 06 2015  13 58  -14.4757 17997.7 -13526.1 -36.9266 22513.9
 22 06 2015  13 59  -14.4758 17997.8 -13525.9 -36.9260 22513.8
 22 06 2015  14 00  -14.4782 17997.2 -13525.2 -36.9255 22512.9
 22 06 2015  14 01  -14.4791 17997.3 -13524.7 -36.9242 22512.7
 22 06 2015  14 02  -14.4777 17998.6 -13524.7 -36.9223 22513.7
 22 06 2015  14 03  -14.4777 17999.0 -13524.7 -36.9216 22514.0
 22 06 2015  14 04  -14.4777 17999.4 -13524.2 -36.9201 22514.0
 22 06 2015  14 05  -14.4771 18000.3 -13523.9 -36.9181 22514.6
 22 06 2015  14 06  -14.4759 18000.9 -13523.8 -36.9167 22515.0
 22 06 2015  14 07  -14.4739 18002.2 -13524.0 -36.9152 22516.2
 22 06 2015  14 08  -14.4730 18003.2 -13523.3 -36.9124 22516.5
 22 06 2015  14 09  -14.4718 18004.1 -13523.9 -36.9122 22517.6
 22 06 2015  14 10  -14.4727 18003.9 -13522.9 -36.9106 22516.9
 22 06 2015  14 11  -14.4738 18003.2 -13522.3 -36.9103 22515.9
 22 06 2015  14 12  -14.4739 18003.7 -13522.2 -36.9094 22516.3
 22 06 2015  14 13  -14.4742 18003.4 -13522.4 -36.9102 22516.2
 22 06 2015  14 14  -14.4753 18002.8 -13521.5 -36.9093 22515.2
 22 06 2015  14 15  -14.4746 18003.1 -13522.2 -36.9104 22515.8
 22 06 2015  14 16  -14.4750 18003.4 -13521.8 -36.9090 22515.9
 22 06 2015  14 17  -14.4753 18003.9 -13521.8 -36.9083 22516.2
 22 06 2015  14 18  -14.4769 18003.0 -13521.3 -36.9085 22515.2
 22 06 2015  14 19  -14.4768 18003.0 -13521.0 -36.9080 22515.0
 22 06 2015  14 20  -14.4756 18003.9 -13521.0 -36.9066 22515.8
 22 06 2015  14 21  -14.4764 18003.9 -13521.2 -36.9070 22515.9
 22 06 2015  14 22  -14.4768 18004.0 -13520.3 -36.9051 22515.3
 22 06 2015  14 23  -14.4766 18003.5 -13519.8 -36.9047 22514.7
 22 06 2015  14 24  -14.4767 18002.6 -13519.3 -36.9050 22513.7
 22 06 2015  14 25  -14.4774 18001.7 -13519.2 -36.9062 22512.9
 22 06 2015  14 26  -14.4770 18001.5 -13519.2 -36.9066 22512.7
 22 06 2015  14 27  -14.4786 18000.6 -13519.5 -36.9085 22512.1
 22 06 2015  14 28  -14.4782 18000.1 -13519.3 -36.9091 22511.7
 22 06 2015  14 29  -14.4782 17999.3 -13519.4 -36.9104 22511.1
 22 06 2015  14 30  -14.4800 17998.2 -13518.9 -36.9111 22509.9
 22 06 2015  14 31  -14.4796 17998.2 -13518.9 -36.9111 22509.9
 22 06 2015  14 32  -14.4796 17997.7 -13519.1 -36.9123 22509.7
 22 06 2015  14 33  -14.4811 17996.6 -13518.8 -36.9133 22508.6
 22 06 2015  14 34  -14.4806 17996.6 -13518.6 -36.9129 22508.4
 22 06 2015  14 35  -14.4815 17997.1 -13518.7 -36.9124 22509.0
 22 06 2015  14 36  -14.4818 17996.0 -13517.8 -36.9122 22507.5
 22 06 2015  14 37  -14.4824 17994.7 -13518.0 -36.9144 22506.6
 22 06 2015  14 38  -14.4804 17995.2 -13518.2 -36.9142 22507.0
 22 06 2015  14 39  -14.4809 17994.7 -13518.1 -36.9148 22506.6
 22 06 2015  14 40  -14.4809 17994.2 -13518.1 -36.9156 22506.2
 22 06 2015  14 41  -14.4816 17993.0 -13518.5 -36.9182 22505.5
 22 06 2015  14 42  -14.4821 17992.7 -13518.7 -36.9190 22505.4
 22 06 2015  14 43  -14.4839 17990.7 -13518.5 -36.9216 22503.6
 22 06 2015  14 44  -14.4870 17988.2 -13517.0 -36.9224 22500.8
 22 06 2015  14 45  -14.4902 17986.3 -13517.2 -36.9258 22499.4
 22 06 2015  14 46  -14.4926 17984.7 -13517.7 -36.9292 22498.4
 22 06 2015  14 47  -14.4954 17983.5 -13517.6 -36.9308 22497.4
 22 06 2015  14 48  -14.4976 17983.5 -13518.2 -36.9321 22497.7
 22 06 2015  14 49  -14.5004 17981.3 -13517.8 -36.9347 22495.7
 22 06 2015  14 50  -14.5020 17979.0 -13517.3 -36.9371 22493.6
 22 06 2015  14 51  -14.5025 17978.1 -13518.0 -36.9400 22493.3
 22 06 2015  14 52  -14.5037 17977.9 -13518.0 -36.9404 22493.2
 22 06 2015  14 53  -14.5052 17976.9 -13518.1 -36.9419 22492.4
 22 06 2015  14 54  -14.5051 17976.4 -13518.3 -36.9432 22492.1
 22 06 2015  14 55  -14.5034 17976.8 -13518.7 -36.9433 22492.7
 22 06 2015  14 56  -14.5023 17976.8 -13518.8 -36.9436 22492.7
 22 06 2015  14 57  -14.5025 17975.5 -13518.5 -36.9450 22491.5
 22 06 2015  14 58  -14.5027 17974.3 -13518.4 -36.9465 22490.5
 22 06 2015  14 59  -14.5032 17973.7 -13518.4 -36.9475 22490.0
 22 06 2015  15 00  -14.5061 17972.2 -13518.4 -36.9498 22488.8
 22 06 2015  15 01  -14.5073 17970.9 -13518.2 -36.9514 22487.6
 22 06 2015  15 02  -14.5073 17970.4 -13518.6 -36.9530 22487.5
 22 06 2015  15 03  -14.5076 17970.9 -13518.7 -36.9523 22488.0
 22 06 2015  15 04  -14.5070 17971.0 -13519.1 -36.9530 22488.3
 22 06 2015  15 05  -14.5066 17971.3 -13518.5 -36.9515 22488.2
 22 06 2015  15 06  -14.5055 17971.0 -13518.6 -36.9520 22488.0
 22 06 2015  15 07  -14.5037 17971.4 -13519.1 -36.9524 22488.6
 22 06 2015  15 08  -14.5002 17973.4 -13518.9 -36.9491 22490.1
 22 06 2015  15 09  -14.4975 17974.8 -13519.4 -36.9479 22491.5
 22 06 2015  15 10  -14.4957 17975.5 -13519.1 -36.9461 22491.9
 22 06 2015  15 11  -14.4937 17976.5 -13519.1 -36.9447 22492.7
 22 06 2015  15 12  -14.4908 17978.0 -13519.5 -36.9432 22494.1
 22 06 2015  15 13  -14.4890 17979.2 -13518.9 -36.9402 22494.8
 22 06 2015  15 14  -14.4884 17980.0 -13518.6 -36.9383 22495.1
 22 06 2015  15 15  -14.4876 17980.7 -13518.5 -36.9370 22495.7
 22 06 2015  15 16  -14.4865 17981.9 -13518.6 -36.9355 22496.7
 22 06 2015  15 17  -14.4847 17983.2 -13518.8 -36.9338 22497.8
 22 06 2015  15 18  -14.4835 17983.9 -13518.2 -36.9316 22498.0
 22 06 2015  15 19  -14.4819 17985.3 -13518.3 -36.9295 22499.2
 22 06 2015  15 20  -14.4809 17986.9 -13518.3 -36.9271 22500.5
 22 06 2015  15 21  -14.4807 17987.6 -13518.2 -36.9259 22501.0
 22 06 2015  15 22  -14.4798 17988.3 -13519.2 -36.9267 22502.2
 22 06 2015  15 23  -14.4779 17989.7 -13518.7 -36.9237 22503.0
 22 06 2015  15 24  -14.4763 17991.0 -13519.2 -36.9227 22504.4
 22 06 2015  15 25  -14.4771 17990.8 -13518.0 -36.9206 22503.5
 22 06 2015  15 26  -14.4759 17991.6 -13518.1 -36.9195 22504.2
 22 06 2015  15 27  -14.4754 17992.2 -13518.4 -36.9191 22504.8
 22 06 2015  15 28  -14.4755 17991.8 -13518.1 -36.9192 22504.3
 22 06 2015  15 29  -14.4757 17991.4 -13517.7 -36.9190 22503.7
 22 06 2015  15 30  -14.4762 17990.7 -13517.8 -36.9203 22503.2
 22 06 2015  15 31  -14.4760 17989.5 -13517.5 -36.9216 22502.2
 22 06 2015  15 32  -14.4764 17988.6 -13517.9 -36.9237 22501.6
 22 06 2015  15 33  -14.4765 17988.2 -13517.9 -36.9244 22501.3
 22 06 2015  15 34  -14.4783 17986.7 -13517.9 -36.9265 22500.1
 22 06 2015  15 35  -14.4800 17985.3 -13517.7 -36.9284 22498.8
 22 06 2015  15 36  -14.4800 17985.5 -13518.1 -36.9289 22499.3
 22 06 2015  15 37  -14.4807 17985.4 -13518.6 -36.9300 22499.5
 22 06 2015  15 38  -14.4824 17984.5 -13518.4 -36.9309 22498.6
 22 06 2015  15 39  -14.4827 17984.5 -13518.8 -36.9317 22498.9
 22 06 2015  15 40  -14.4837 17984.8 -13519.1 -36.9318 22499.3
 22 06 2015  15 41  -14.4841 17985.0 -13519.2 -36.9318 22499.6
 22 06 2015  15 42  -14.4855 17984.6 -13519.2 -36.9325 22499.2
 22 06 2015  15 43  -14.4865 17984.2 -13519.3 -36.9332 22499.0
 22 06 2015  15 44  -14.4868 17984.1 -13519.5 -36.9338 22499.0
 22 06 2015  15 45  -14.4877 17983.9 -13519.3 -36.9336 22498.7
 22 06 2015  15 46  -14.4896 17983.5 -13519.7 -36.9351 22498.6
 22 06 2015  15 47  -14.4898 17983.1 -13519.6 -36.9354 22498.3
 22 06 2015  15 48  -14.4893 17983.1 -13520.1 -36.9366 22498.5
 22 06 2015  15 49  -14.4896 17983.0 -13519.4 -36.9353 22498.0
 22 06 2015  15 50  -14.4890 17983.3 -13520.3 -36.9367 22498.8
 22 06 2015  15 51  -14.4895 17983.0 -13520.0 -36.9367 22498.4
 22 06 2015  15 52  -14.4897 17981.8 -13520.2 -36.9389 22497.6
 22 06 2015  15 53  -14.4890 17981.6 -13520.2 -36.9391 22497.5
 22 06 2015  15 54  -14.4896 17981.2 -13520.4 -36.9401 22497.3
 22 06 2015  15 55  -14.4918 17980.7 -13520.6 -36.9413 22496.9
 22 06 2015  15 56  -14.4945 17979.7 -13520.7 -36.9430 22496.2
 22 06 2015  15 57  -14.4958 17978.7 -13520.0 -36.9430 22495.0
 22 06 2015  15 58  -14.4955 17978.7 -13521.1 -36.9454 22495.6
 22 06 2015  15 59  -14.4960 17978.5 -13521.5 -36.9464 22495.7
 22 06 2015  16 00  -14.4968 17978.3 -13521.7 -36.9472 22495.6
 22 06 2015  16 01  -14.4993 17976.8 -13521.5 -36.9492 22494.3
 22 06 2015  16 02  -14.5011 17975.4 -13521.4 -36.9511 22493.2
 22 06 2015  16 03  -14.5014 17975.4 -13521.5 -36.9512 22493.3
 22 06 2015  16 04  -14.5024 17974.7 -13522.2 -36.9537 22493.1
 22 06 2015  16 05  -14.5035 17973.5 -13522.0 -36.9551 22492.0
 22 06 2015  16 06  -14.5061 17971.9 -13521.6 -36.9569 22490.5
 22 06 2015  16 07  -14.5066 17971.3 -13522.2 -36.9590 22490.4
 22 06 2015  16 08  -14.5068 17970.5 -13522.6 -36.9608 22490.0
 22 06 2015  16 09  -14.5076 17970.0 -13522.8 -36.9622 22489.7
 22 06 2015  16 10  -14.5085 17969.9 -13522.8 -36.9624 22489.6
 22 06 2015  16 11  -14.5108 17968.3 -13522.9 -36.9648 22488.4
 22 06 2015  16 12  -14.5119 17967.1 -13522.7 -36.9664 22487.3
 22 06 2015  16 13  -14.5111 17967.1 -13523.1 -36.9672 22487.5
 22 06 2015  16 14  -14.5105 17966.3 -13523.3 -36.9687 22487.1
 22 06 2015  16 15  -14.5122 17965.0 -13523.1 -36.9705 22485.9
 22 06 2015  16 16  -14.5144 17963.3 -13523.1 -36.9731 22484.5
 22 06 2015  16 17  -14.5150 17963.0 -13523.1 -36.9735 22484.2
 22 06 2015  16 18  -14.5157 17962.0 -13524.0 -36.9768 22484.0
 22 06 2015  16 19  -14.5162 17962.1 -13523.9 -36.9765 22484.1
 22 06 2015  16 20  -14.5167 17962.0 -13523.9 -36.9766 22483.9
 22 06 2015  16 21  -14.5176 17960.7 -13523.9 -36.9785 22482.9
 22 06 2015  16 22  -14.5171 17960.1 -13523.8 -36.9794 22482.4
 22 06 2015  16 23  -14.5152 17960.5 -13524.5 -36.9802 22483.1
 22 06 2015  16 24  -14.5136 17960.5 -13524.7 -36.9806 22483.2
 22 06 2015  16 25  -14.5137 17959.1 -13525.5 -36.9843 22482.6
 22 06 2015  16 26  -14.5152 17957.5 -13525.1 -36.9860 22481.2
 22 06 2015  16 27  -14.5158 17956.3 -13524.9 -36.9874 22480.0
 22 06 2015  16 28  -14.5155 17956.8 -13525.6 -36.9881 22480.8
 22 06 2015  16 29  -14.5142 17957.2 -13525.8 -36.9879 22481.3
 22 06 2015  16 30  -14.5147 17956.6 -13525.5 -36.9883 22480.6
 22 06 2015  16 31  -14.5147 17955.8 -13526.0 -36.9905 22480.2
 22 06 2015  16 32  -14.5146 17954.4 -13525.6 -36.9918 22479.0
 22 06 2015  16 33  -14.5140 17954.7 -13526.3 -36.9926 22479.6
 22 06 2015  16 34  -14.5143 17953.7 -13526.2 -36.9939 22478.7
 22 06 2015  16 35  -14.5173 17951.0 -13525.3 -36.9963 22476.0
 22 06 2015  16 36  -14.5192 17949.2 -13525.7 -37.0000 22474.9
 22 06 2015  16 37  -14.5212 17948.3 -13526.0 -37.0019 22474.3
 22 06 2015  16 38  -14.5223 17947.6 -13526.0 -37.0030 22473.7
 22 06 2015  16 39  -14.5222 17946.5 -13526.4 -37.0055 22473.1
 22 06 2015  16 40  -14.5227 17945.7 -13526.6 -37.0071 22472.5
 22 06 2015  16 41  -14.5229 17945.3 -13526.6 -37.0076 22472.3
 22 06 2015  16 42  -14.5222 17944.5 -13527.5 -37.0108 22472.1
 22 06 2015  16 43  -14.5227 17943.1 -13527.1 -37.0121 22470.8
 22 06 2015  16 44  -14.5239 17942.1 -13527.2 -37.0138 22470.1
 22 06 2015  16 45  -14.5248 17941.4 -13527.4 -37.0155 22469.6
 22 06 2015  16 46  -14.5272 17940.2 -13527.5 -37.0174 22468.8
 22 06 2015  16 47  -14.5281 17940.3 -13527.8 -37.0178 22469.0
 22 06 2015  16 48  -14.5280 17940.1 -13528.2 -37.0190 22469.0
 22 06 2015  16 49  -14.5299 17938.7 -13527.9 -37.0207 22467.8
 22 06 2015  16 50  -14.5325 17937.4 -13528.3 -37.0232 22467.0
 22 06 2015  16 51  -14.5340 17937.5 -13528.4 -37.0234 22467.2
 22 06 2015  16 52  -14.5336 17937.8 -13528.5 -37.0231 22467.4
 22 06 2015  16 53  -14.5326 17937.3 -13528.9 -37.0246 22467.3
 22 06 2015  16 54  -14.5320 17936.8 -13528.7 -37.0250 22466.7
 22 06 2015  16 55  -14.5314 17936.4 -13529.3 -37.0270 22466.7
 22 06 2015  16 56  -14.5310 17936.5 -13529.5 -37.0272 22467.0
 22 06 2015  16 57  -14.5304 17936.6 -13530.2 -37.0284 22467.4
 22 06 2015  16 58  -14.5306 17936.3 -13529.6 -37.0278 22466.9
 22 06 2015  16 59  -14.5311 17936.0 -13529.6 -37.0282 22466.6
 22 06 2015  17 00  -14.5317 17936.0 -13530.1 -37.0292 22466.9
 22 06 2015  17 01  -14.5303 17936.5 -13531.2 -37.0308 22468.0
 22 06 2015  17 02  -14.5284 17937.3 -13531.5 -37.0300 22468.9
 22 06 2015  17 03  -14.5266 17938.1 -13531.3 -37.0284 22469.4
 22 06 2015  17 04  -14.5241 17939.6 -13532.0 -37.0276 22471.0
 22 06 2015  17 05  -14.5216 17940.5 -13532.0 -37.0261 22471.7
 22 06 2015  17 06  -14.5176 17942.0 -13532.2 -37.0242 22473.0
 22 06 2015  17 07  -14.5133 17943.7 -13532.6 -37.0224 22474.6
 22 06 2015  17 08  -14.5097 17944.6 -13532.8 -37.0215 22475.5
 22 06 2015  17 09  -14.5065 17945.1 -13532.6 -37.0202 22475.7
 22 06 2015  17 10  -14.5037 17945.5 -13533.0 -37.0204 22476.3
 22 06 2015  17 11  -14.5018 17945.9 -13532.4 -37.0188 22476.3
 22 06 2015  17 12  -14.4996 17946.2 -13532.8 -37.0189 22476.7
 22 06 2015  17 13  -14.4976 17946.6 -13533.3 -37.0194 22477.3
 22 06 2015  17 14  -14.4959 17946.9 -13532.8 -37.0180 22477.3
 22 06 2015  17 15  -14.4943 17947.4 -13532.9 -37.0174 22477.8
 22 06 2015  17 16  -14.4928 17947.8 -13532.4 -37.0158 22477.8
 22 06 2015  17 17  -14.4919 17947.8 -13532.7 -37.0164 22478.0
 22 06 2015  17 18  -14.4916 17947.6 -13533.4 -37.0181 22478.2
 22 06 2015  17 19  -14.4903 17948.6 -13533.4 -37.0165 22479.0
 22 06 2015  17 20  -14.4892 17949.7 -13533.4 -37.0149 22479.9
 22 06 2015  17 21  -14.4884 17950.1 -13533.2 -37.0138 22480.1
 22 06 2015  17 22  -14.4865 17950.5 -13533.5 -37.0139 22480.6
 22 06 2015  17 23  -14.4839 17951.3 -13533.1 -37.0119 22481.0
 22 06 2015  17 24  -14.4817 17951.7 -13533.4 -37.0117 22481.5
 22 06 2015  17 25  -14.4800 17951.9 -13533.6 -37.0118 22481.7
 22 06 2015  17 26  -14.4789 17952.2 -13533.8 -37.0118 22482.1
 22 06 2015  17 27  -14.4783 17952.4 -13533.8 -37.0115 22482.3
 22 06 2015  17 28  -14.4783 17952.2 -13533.9 -37.0121 22482.2
 22 06 2015  17 29  -14.4782 17951.6 -13533.9 -37.0130 22481.7
 22 06 2015  17 30  -14.4776 17951.1 -13533.9 -37.0136 22481.3
 22 06 2015  17 31  -14.4766 17950.7 -13534.7 -37.0160 22481.4
 22 06 2015  17 32  -14.4755 17950.0 -13534.6 -37.0169 22480.8
 22 06 2015  17 33  -14.4744 17950.1 -13533.9 -37.0153 22480.5
 22 06 2015  17 34  -14.4733 17950.7 -13535.1 -37.0168 22481.7
 22 06 2015  17 35  -14.4734 17951.6 -13535.1 -37.0154 22482.4
 22 06 2015  17 36  -14.4724 17952.5 -13535.5 -37.0147 22483.4
 22 06 2015  17 37  -14.4701 17954.0 -13536.6 -37.0148 22485.3
 22 06 2015  17 38  -14.4673 17955.8 -13535.8 -37.0105 22486.2
 22 06 2015  17 39  -14.4634 17957.6 -13536.2 -37.0084 22487.8
 22 06 2015  17 40  -14.4605 17959.7 -13537.1 -37.0071 22490.1
 22 06 2015  17 41  -14.4572 17960.8 -13537.4 -37.0060 22491.1
 22 06 2015  17 42  -14.4557 17961.6 -13537.7 -37.0054 22492.0
 22 06 2015  17 43  -14.4528 17962.8 -13537.2 -37.0024 22492.6
 22 06 2015  17 44  -14.4502 17964.3 -13537.4 -37.0006 22494.0
 22 06 2015  17 45  -14.4483 17965.4 -13537.6 -36.9993 22494.9
 22 06 2015  17 46  -14.4461 17966.3 -13537.9 -36.9986 22495.9
 22 06 2015  17 47  -14.4442 17966.5 -13538.4 -36.9993 22496.3
 22 06 2015  17 48  -14.4442 17966.4 -13537.8 -36.9981 22495.9
 22 06 2015  17 49  -14.4448 17965.8 -13537.4 -36.9982 22495.1
 22 06 2015  17 50  -14.4454 17965.0 -13537.2 -36.9990 22494.4
 22 06 2015  17 51  -14.4453 17964.9 -13537.7 -37.0003 22494.6
 22 06 2015  17 52  -14.4464 17964.8 -13537.7 -37.0005 22494.5
 22 06 2015  17 53  -14.4468 17964.0 -13537.5 -37.0011 22493.8
 22 06 2015  17 54  -14.4470 17964.8 -13538.2 -37.0014 22494.8
 22 06 2015  17 55  -14.4473 17965.1 -13538.4 -37.0014 22495.2
 22 06 2015  17 56  -14.4470 17965.7 -13538.6 -37.0008 22495.8
 22 06 2015  17 57  -14.4474 17965.3 -13539.2 -37.0027 22495.8
 22 06 2015  17 58  -14.4464 17965.3 -13539.5 -37.0034 22496.0
 22 06 2015  17 59  -14.4458 17964.8 -13538.3 -37.0016 22494.9
 22 06 2015  18 00  -14.4459 17963.0 -13537.9 -37.0036 22493.3
 22 06 2015  18 01  -14.4459 17961.7 -13538.8 -37.0076 22492.7
 22 06 2015  18 02  -14.4461 17960.7 -13538.8 -37.0090 22491.9
 22 06 2015  18 03  -14.4460 17960.4 -13539.5 -37.0109 22492.1
 22 06 2015  18 04  -14.4447 17961.2 -13540.1 -37.0109 22493.1
 22 06 2015  18 05  -14.4451 17961.1 -13539.8 -37.0104 22492.9
 22 06 2015  18 06  -14.4443 17961.7 -13540.4 -37.0106 22493.6
 22 06 2015  18 07  -14.4449 17961.7 -13540.2 -37.0103 22493.6
 22 06 2015  18 08  -14.4451 17962.1 -13540.6 -37.0104 22494.1
 22 06 2015  18 09  -14.4445 17963.3 -13540.7 -37.0089 22495.1
 22 06 2015  18 10  -14.4443 17963.8 -13540.8 -37.0082 22495.6
 22 06 2015  18 11  -14.4446 17963.6 -13540.9 -37.0087 22495.4
 22 06 2015  18 12  -14.4456 17963.4 -13540.7 -37.0087 22495.3
 22 06 2015  18 13  -14.4458 17963.1 -13540.9 -37.0095 22495.1
 22 06 2015  18 14  -14.4465 17962.4 -13540.6 -37.0099 22494.3
 22 06 2015  18 15  -14.4479 17961.4 -13540.8 -37.0120 22493.7
 22 06 2015  18 16  -14.4495 17960.7 -13540.4 -37.0122 22492.9
 22 06 2015  18 17  -14.4503 17959.7 -13540.8 -37.0146 22492.3
 22 06 2015  18 18  -14.4510 17958.5 -13540.7 -37.0163 22491.3
 22 06 2015  18 19  -14.4529 17956.8 -13540.0 -37.0175 22489.5
 22 06 2015  18 20  -14.4531 17956.1 -13541.0 -37.0204 22489.5
 22 06 2015  18 21  -14.4544 17954.7 -13541.0 -37.0227 22488.5
 22 06 2015  18 22  -14.4565 17953.6 -13540.2 -37.0228 22487.0
 22 06 2015  18 23  -14.4591 17951.9 -13539.7 -37.0242 22485.4
 22 06 2015  18 24  -14.4609 17950.5 -13540.9 -37.0289 22485.0
 22 06 2015  18 25  -14.4609 17950.3 -13540.2 -37.0278 22484.5
 22 06 2015  18 26  -14.4618 17948.8 -13540.8 -37.0313 22483.6
 22 06 2015  18 27  -14.4639 17947.3 -13540.6 -37.0331 22482.3
 22 06 2015  18 28  -14.4646 17947.1 -13541.0 -37.0343 22482.4
 22 06 2015  18 29  -14.4658 17947.0 -13541.8 -37.0360 22482.7
 22 06 2015  18 30  -14.4665 17947.1 -13541.6 -37.0356 22482.7
 22 06 2015  18 31  -14.4672 17946.5 -13541.9 -37.0371 22482.4
 22 06 2015  18 32  -14.4691 17946.7 -13542.0 -37.0370 22482.6
 22 06 2015  18 33  -14.4696 17952.2 -13542.9 -37.0303 22487.6
 22 06 2015  18 34  -14.4583 18000.9 -13552.9 -36.9761 22532.5
 22 06 2015  18 35  -14.4523 18027.8 -13555.5 -36.9402 22555.6
 22 06 2015  18 36  -14.4731 18022.5 -13546.1 -36.9292 22545.6
 22 06 2015  18 37  -14.4479 18036.4 -13545.7 -36.9072 22556.5
 22 06 2015  18 38  -14.4494 18031.8 -13541.2 -36.9051 22550.2
 22 06 2015  18 39  -14.4600 18031.1 -13538.8 -36.9013 22548.2
 22 06 2015  18 40  -14.4624 18035.9 -13537.7 -36.8917 22551.4
 22 06 2015  18 41  -14.4593 18043.5 -13538.0 -36.8808 22557.7
 22 06 2015  18 42  -14.4672 18045.7 -13536.5 -36.8742 22558.5
 22 06 2015  18 43  -14.4765 18045.1 -13534.2 -36.8706 22556.6
 22 06 2015  18 44  -14.4763 18043.2 -13533.8 -36.8726 22554.8
 22 06 2015  18 45  -14.4881 18041.1 -13532.2 -36.8727 22552.2
 22 06 2015  18 46  -14.4930 18043.7 -13532.9 -36.8701 22554.7
 22 06 2015  18 47  -14.5008 18042.7 -13531.5 -36.8688 22553.0
 22 06 2015  18 48  -14.5121 18040.2 -13530.7 -36.8709 22550.6
 22 06 2015  18 49  -14.5151 18039.6 -13530.7 -36.8719 22550.1
 22 06 2015  18 50  -14.5226 18036.8 -13529.4 -36.8734 22547.0
 22 06 2015  18 51  -14.5314 18036.8 -13529.7 -36.8742 22547.3
 22 06 2015  18 52  -14.5391 18040.9 -13530.9 -36.8702 22551.2
 22 06 2015  18 53  -14.5449 18039.3 -13530.7 -36.8723 22549.8
 22 06 2015  18 54  -14.5481 18041.1 -13530.7 -36.8696 22551.3
 22 06 2015  18 55  -14.5431 18040.8 -13530.4 -36.8693 22550.9
 22 06 2015  18 56  -14.5523 18034.7 -13529.1 -36.8760 22545.2
 22 06 2015  18 57  -14.5532 18031.5 -13527.8 -36.8784 22541.9
 22 06 2015  18 58  -14.5547 18028.5 -13528.3 -36.8839 22539.8
 22 06 2015  18 59  -14.5593 18027.3 -13528.4 -36.8860 22538.9
 22 06 2015  19 00  -14.5577 18032.0 -13529.1 -36.8803 22543.0
 22 06 2015  19 01  -14.5568 18033.9 -13530.3 -36.8797 22545.3
 22 06 2015  19 02  -14.5697 18018.5 -13526.0 -36.8944 22530.4
 22 06 2015  19 03  -14.5671 18020.5 -13527.6 -36.8947 22533.0
 22 06 2015  19 04  -14.5613 18029.8 -13530.9 -36.8873 22542.4
 22 06 2015  19 05  -14.5674 18028.6 -13529.8 -36.8869 22540.8
 22 06 2015  19 06  -14.5722 18029.1 -13529.9 -36.8863 22541.3
 22 06 2015  19 07  -14.5680 18026.7 -13529.0 -36.8882 22538.7
 22 06 2015  19 08  -14.5722 18022.9 -13528.5 -36.8928 22535.5
 22 06 2015  19 09  -14.5778 18017.0 -13526.9 -36.8986 22529.7
 22 06 2015  19 10  -14.5783 18015.8 -13527.4 -36.9015 22529.0
 22 06 2015  19 11  -14.5801 18017.1 -13528.3 -36.9013 22530.7
 22 06 2015  19 12  -14.5837 18012.5 -13527.5 -36.9066 22526.5
 22 06 2015  19 13  -14.5875 18009.0 -13527.1 -36.9112 22523.5
 22 06 2015  19 14  -14.5816 18009.1 -13528.2 -36.9133 22524.2
 22 06 2015  19 15  -14.5798 18006.8 -13528.2 -36.9168 22522.3
 22 06 2015  19 16  -14.5767 18004.3 -13528.1 -36.9205 22520.3
 22 06 2015  19 17  -14.5742 17999.4 -13527.8 -36.9273 22516.2
 22 06 2015  19 18  -14.5725 17988.9 -13526.4 -36.9406 22507.0
 22 06 2015  19 19  -14.5773 17981.9 -13526.3 -36.9511 22501.4
 22 06 2015  19 20  -14.5779 17974.8 -13526.7 -36.9626 22495.9
 22 06 2015  19 21  -14.5826 17970.1 -13527.4 -36.9714 22492.6
 22 06 2015  19 22  -14.5891 17968.6 -13528.9 -36.9767 22492.3
 22 06 2015  19 23  -14.5977 17964.9 -13529.2 -36.9830 22489.4
 22 06 2015  19 24  -14.6045 17963.5 -13530.1 -36.9871 22488.9
 22 06 2015  19 25  -14.6100 17957.3 -13529.7 -36.9956 22483.7
 22 06 2015  19 26  -14.6175 17955.3 -13530.7 -37.0008 22482.7
 22 06 2015  19 27  -14.6219 17949.9 -13530.5 -37.0086 22478.3
 22 06 2015  19 28  -14.6252 17950.3 -13531.9 -37.0109 22479.4
 22 06 2015  19 29  -14.6300 17951.0 -13533.1 -37.0122 22480.7
 22 06 2015  19 30  -14.6393 17950.2 -13533.3 -37.0140 22480.2
 22 06 2015  19 31  -14.6463 17951.5 -13534.3 -37.0138 22481.8
 22 06 2015  19 32  -14.6544 17950.9 -13534.2 -37.0147 22481.3
 22 06 2015  19 33  -14.6644 17951.6 -13534.7 -37.0145 22482.1
 22 06 2015  19 34  -14.6691 17947.2 -13533.8 -37.0196 22478.1
 22 06 2015  19 35  -14.6719 17942.4 -13533.3 -37.0258 22474.0
 22 06 2015  19 36  -14.6757 17938.1 -13533.3 -37.0323 22470.6
 22 06 2015  19 37  -14.6797 17937.1 -13534.1 -37.0356 22470.2
 22 06 2015  19 38  -14.6833 17935.3 -13534.6 -37.0394 22469.1
 22 06 2015  19 39  -14.6883 17933.8 -13535.1 -37.0426 22468.2
 22 06 2015  19 40  -14.6925 17932.8 -13535.4 -37.0449 22467.6
 22 06 2015  19 41  -14.6979 17930.8 -13536.1 -37.0493 22466.4
 22 06 2015  19 42  -14.7052 17924.4 -13535.5 -37.0579 22460.9
 22 06 2015  19 43  -14.7076 17915.1 -13534.3 -37.0699 22452.8
 22 06 2015  19 44  -14.7122 17909.7 -13534.2 -37.0778 22448.4
 22 06 2015  19 45  -14.7194 17902.8 -13534.8 -37.0899 22443.3
 22 06 2015  19 46  -14.7265 17895.6 -13534.2 -37.0996 22437.2
 22 06 2015  19 47  -14.7287 17892.8 -13535.8 -37.1072 22435.9
 22 06 2015  19 48  -14.7291 17887.8 -13536.5 -37.1162 22432.4
 22 06 2015  19 49  -14.7311 17880.1 -13536.4 -37.1280 22426.1
 22 06 2015  19 50  -14.7266 17871.4 -13536.2 -37.1409 22419.1
 22 06 2015  19 51  -14.7188 17863.7 -13536.8 -37.1541 22413.3
 22 06 2015  19 52  -14.7113 17855.0 -13537.6 -37.1691 22406.8
 22 06 2015  19 53  -14.7049 17847.1 -13538.6 -37.1835 22401.2
 22 06 2015  19 54  -14.6921 17839.1 -13539.5 -37.1975 22395.3
 22 06 2015  19 55  -14.6797 17830.4 -13540.3 -37.2126 22388.9
 22 06 2015  19 56  -14.6655 17823.0 -13542.1 -37.2277 22384.1
 22 06 2015  19 57  -14.6520 17818.6 -13543.7 -37.2379 22381.6
 22 06 2015  19 58  -14.6427 17814.9 -13545.4 -37.2472 22379.6
 22 06 2015  19 59  -14.6328 17809.7 -13547.2 -37.2590 22376.6
 22 06 2015  20 00  -14.6250 17803.6 -13548.1 -37.2702 22372.3
 22 06 2015  20 01  -14.6164 17798.5 -13548.7 -37.2792 22368.6
 22 06 2015  20 02  -14.6070 17793.3 -13549.4 -37.2887 22364.9
 22 06 2015  20 03  -14.5995 17787.8 -13550.3 -37.2991 22361.0
 22 06 2015  20 04  -14.5902 17785.0 -13552.0 -37.3069 22359.8
 22 06 2015  20 05  -14.5760 17783.9 -13553.1 -37.3109 22359.6
 22 06 2015  20 06  -14.5615 17781.2 -13554.1 -37.3171 22358.1
 22 06 2015  20 07  -14.5467 17780.0 -13555.6 -37.3222 22358.1
 22 06 2015  20 08  -14.5347 17777.7 -13556.3 -37.3271 22356.7
 22 06 2015  20 09  -14.5236 17774.3 -13556.3 -37.3324 22353.9
 22 06 2015  20 10  -14.5170 17769.8 -13557.2 -37.3412 22350.9
 22 06 2015  20 11  -14.5047 17767.6 -13557.9 -37.3460 22349.6
 22 06 2015  20 12  -14.4944 17767.3 -13558.5 -37.3477 22349.7
 22 06 2015  20 13  -14.4835 17764.3 -13559.4 -37.3542 22347.9
 22 06 2015  20 14  -14.4742 17764.8 -13560.2 -37.3551 22348.7
 22 06 2015  20 15  -14.4675 17764.1 -13561.4 -37.3587 22348.9
 22 06 2015  20 16  -14.4654 17764.3 -13562.2 -37.3599 22349.5
 22 06 2015  20 17  -14.4645 17763.0 -13562.2 -37.3620 22348.5
 22 06 2015  20 18  -14.4597 17762.4 -13563.3 -37.3651 22348.7
 22 06 2015  20 19  -14.4616 17762.3 -13564.1 -37.3669 22349.1
 22 06 2015  20 20  -14.4628 17762.8 -13565.2 -37.3684 22350.3
 22 06 2015  20 21  -14.4688 17763.5 -13564.7 -37.3662 22350.4
 22 06 2015  20 22  -14.4687 17765.9 -13566.1 -37.3655 22353.2
 22 06 2015  20 23  -14.4619 17767.9 -13566.7 -37.3635 22355.1
 22 06 2015  20 24  -14.4557 17769.1 -13566.8 -37.3617 22356.2
 22 06 2015  20 25  -14.4562 17769.2 -13567.2 -37.3626 22356.5
 22 06 2015  20 26  -14.4587 17768.7 -13567.2 -37.3631 22356.1
 22 06 2015  20 27  -14.4623 17768.1 -13567.4 -37.3646 22355.8
 22 06 2015  20 28  -14.4625 17770.2 -13567.9 -37.3623 22357.7
 22 06 2015  20 29  -14.4581 17773.2 -13568.6 -37.3592 22360.5
 22 06 2015  20 30  -14.4553 17775.5 -13569.2 -37.3567 22362.7
 22 06 2015  20 31  -14.4591 17774.9 -13569.3 -37.3579 22362.4
 22 06 2015  20 32  -14.4626 17773.6 -13568.6 -37.3584 22360.8
 22 06 2015  20 33  -14.4610 17773.5 -13568.6 -37.3587 22360.8
 22 06 2015  20 34  -14.4560 17775.3 -13569.6 -37.3579 22362.7
 22 06 2015  20 35  -14.4484 17777.2 -13570.1 -37.3560 22364.7
 22 06 2015  20 36  -14.4450 17778.0 -13569.9 -37.3543 22365.2
 22 06 2015  20 37  -14.4476 17779.4 -13570.0 -37.3523 22366.3
 22 06 2015  20 38  -14.4506 17779.5 -13569.9 -37.3520 22366.4
 22 06 2015  20 39  -14.4555 17778.8 -13569.5 -37.3522 22365.5
 22 06 2015  20 40  -14.4643 17777.3 -13569.4 -37.3545 22364.3
 22 06 2015  20 41  -14.4744 17777.1 -13569.5 -37.3550 22364.2
 22 06 2015  20 42  -14.4779 17776.5 -13569.3 -37.3553 22363.6
 22 06 2015  20 43  -14.4862 17773.8 -13569.3 -37.3596 22361.5
 22 06 2015  20 44  -14.4984 17774.8 -13569.4 -37.3582 22362.3
 22 06 2015  20 45  -14.5021 17778.1 -13570.9 -37.3562 22365.8
 22 06 2015  20 46  -14.5043 17779.3 -13570.3 -37.3532 22366.4
 22 06 2015  20 47  -14.5120 17778.9 -13570.0 -37.3532 22365.9
 22 06 2015  20 48  -14.5197 17779.9 -13570.9 -37.3533 22367.3
 22 06 2015  20 49  -14.5252 17780.7 -13570.1 -37.3505 22367.5
 22 06 2015  20 50  -14.5276 17783.6 -13570.6 -37.3471 22370.0
 22 06 2015  20 51  -14.5285 17784.5 -13570.4 -37.3452 22370.6
 22 06 2015  20 52  -14.5301 17787.9 -13571.0 -37.3410 22373.7
 22 06 2015  20 53  -14.5308 17791.6 -13571.3 -37.3359 22376.8
 22 06 2015  20 54  -14.5305 17793.9 -13571.0 -37.3317 22378.4
 22 06 2015  20 55  -14.5323 17796.9 -13570.9 -37.3271 22380.8
 22 06 2015  20 56  -14.5321 17800.8 -13570.5 -37.3202 22383.6
 22 06 2015  20 57  -14.5323 17804.7 -13570.7 -37.3145 22386.9
 22 06 2015  20 58  -14.5333 17807.4 -13570.1 -37.3090 22388.6
 22 06 2015  20 59  -14.5351 17809.1 -13569.4 -37.3051 22389.6
 22 06 2015  21 00  -14.5383 17810.4 -13568.8 -37.3019 22390.2
 22 06 2015  21 01  -14.5394 17812.6 -13568.3 -37.2974 22391.7
 22 06 2015  21 02  -14.5445 17811.4 -13567.5 -37.2975 22390.3
 22 06 2015  21 03  -14.5487 17811.9 -13566.9 -37.2956 22390.3
 22 06 2015  21 04  -14.5512 17813.5 -13566.7 -37.2927 22391.5
 22 06 2015  21 05  -14.5550 17814.4 -13566.3 -37.2905 22391.9
 22 06 2015  21 06  -14.5568 17817.0 -13566.6 -37.2870 22394.1
 22 06 2015  21 07  -14.5573 17820.2 -13566.9 -37.2827 22396.9
 22 06 2015  21 08  -14.5591 17821.7 -13566.2 -37.2790 22397.6
 22 06 2015  21 09  -14.5624 17821.5 -13565.5 -37.2779 22397.1
 22 06 2015  21 10  -14.5629 17824.3 -13565.3 -37.2732 22399.2
 22 06 2015  21 11  -14.5617 17828.1 -13565.8 -37.2681 22402.5
 22 06 2015  21 12  -14.5620 17829.8 -13565.0 -37.2641 22403.4
 22 06 2015  21 13  -14.5628 17831.8 -13564.7 -37.2602 22404.8
 22 06 2015  21 14  -14.5639 17833.1 -13563.9 -37.2567 22405.3
 22 06 2015  21 15  -14.5657 17832.8 -13563.5 -37.2562 22404.8
 22 06 2015  21 16  -14.5644 17834.6 -13563.6 -37.2537 22406.3
 22 06 2015  21 17  -14.5649 17834.1 -13562.7 -37.2526 22405.4
 22 06 2015  21 18  -14.5668 17833.9 -13562.1 -37.2517 22404.8
 22 06 2015  21 19  -14.5672 17835.8 -13562.5 -37.2494 22406.6
 22 06 2015  21 20  -14.5694 17835.6 -13561.8 -37.2484 22406.0
 22 06 2015  21 21  -14.5710 17835.4 -13561.5 -37.2481 22405.7
 22 06 2015  21 22  -14.5727 17837.3 -13561.9 -37.2460 22407.4
 22 06 2015  21 23  -14.5736 17838.4 -13561.7 -37.2439 22408.1
 22 06 2015  21 24  -14.5704 17840.8 -13561.7 -37.2403 22410.1
 22 06 2015  21 25  -14.5675 17841.2 -13561.4 -37.2390 22410.3
 22 06 2015  21 26  -14.5666 17840.1 -13560.9 -37.2397 22409.0
 22 06 2015  21 27  -14.5647 17840.4 -13560.7 -37.2388 22409.2
 22 06 2015  21 28  -14.5610 17841.0 -13561.0 -37.2384 22409.9
 22 06 2015  21 29  -14.5629 17842.3 -13561.0 -37.2364 22410.9
 22 06 2015  21 30  -14.5585 17843.3 -13560.9 -37.2347 22411.6
 22 06 2015  21 31  -14.5616 17843.0 -13560.6 -37.2347 22411.2
 22 06 2015  21 32  -14.5588 17844.9 -13561.1 -37.2327 22413.0
 22 06 2015  21 33  -14.5589 17844.7 -13560.4 -37.2316 22412.4
 22 06 2015  21 34  -14.5572 17845.5 -13560.3 -37.2300 22413.0
 22 06 2015  21 35  -14.5555 17845.4 -13560.1 -37.2297 22412.8
 22 06 2015  21 36  -14.5574 17843.5 -13559.7 -37.2319 22411.1
 22 06 2015  21 37  -14.5575 17841.8 -13559.0 -37.2332 22409.3
 22 06 2015  21 38  -14.5542 17841.4 -13558.8 -37.2333 22408.8
 22 06 2015  21 39  -14.5488 17841.5 -13559.6 -37.2348 22409.4
 22 06 2015  21 40  -14.5456 17840.7 -13559.4 -37.2357 22408.6
 22 06 2015  21 41  -14.5437 17838.6 -13558.8 -37.2377 22406.7
 22 06 2015  21 42  -14.5411 17835.9 -13559.2 -37.2428 22404.7
 22 06 2015  21 43  -14.5368 17833.9 -13558.9 -37.2453 22403.0
 22 06 2015  21 44  -14.5303 17834.2 -13559.5 -37.2459 22403.5
 22 06 2015  21 45  -14.5224 17835.6 -13560.2 -37.2452 22405.1
 22 06 2015  21 46  -14.5206 17834.4 -13560.2 -37.2471 22404.1
 22 06 2015  21 47  -14.5186 17835.2 -13560.3 -37.2460 22404.8
 22 06 2015  21 48  -14.5152 17836.8 -13561.1 -37.2452 22406.5
 22 06 2015  21 49  -14.5105 17836.9 -13560.8 -37.2445 22406.5
 22 06 2015  21 50  -14.5071 17839.0 -13561.1 -37.2417 22408.4
 22 06 2015  21 51  -14.5040 17841.4 -13561.6 -37.2391 22410.6
 22 06 2015  21 52  -14.5031 17842.4 -13561.2 -37.2368 22411.1
 22 06 2015  21 53  -14.5018 17842.1 -13560.8 -37.2364 22410.7
 22 06 2015  21 54  -14.5003 17844.3 -13560.9 -37.2332 22412.4
 22 06 2015  21 55  -14.5003 17844.8 -13560.8 -37.2321 22412.8
 22 06 2015  21 56  -14.5012 17843.9 -13559.7 -37.2313 22411.4
 22 06 2015  21 57  -14.5025 17844.4 -13559.8 -37.2308 22411.9
 22 06 2015  21 58  -14.5025 17845.3 -13559.9 -37.2297 22412.7
 22 06 2015  21 59  -14.5051 17843.4 -13559.2 -37.2311 22410.7
 22 06 2015  22 00  -14.5074 17843.4 -13559.7 -37.2321 22411.0
 22 06 2015  22 01  -14.5072 17844.9 -13559.2 -37.2289 22411.8
 22 06 2015  22 02  -14.5077 17845.7 -13559.8 -37.2288 22412.9
 22 06 2015  22 03  -14.5085 17845.9 -13559.4 -37.2275 22412.8
 22 06 2015  22 04  -14.5092 17846.3 -13559.6 -37.2274 22413.2
 22 06 2015  22 05  -14.5101 17847.2 -13559.2 -37.2251 22413.7
 22 06 2015  22 06  -14.5114 17848.1 -13559.4 -37.2242 22414.5
 22 06 2015  22 07  -14.5139 17847.2 -13558.9 -37.2246 22413.5
 22 06 2015  22 08  -14.5155 17846.4 -13558.5 -37.2251 22412.6
 22 06 2015  22 09  -14.5159 17845.5 -13558.0 -37.2253 22411.6
 22 06 2015  22 10  -14.5191 17844.0 -13557.8 -37.2274 22410.4
 22 06 2015  22 11  -14.5219 17844.2 -13558.4 -37.2282 22410.8
 22 06 2015  22 12  -14.5228 17846.8 -13558.4 -37.2242 22412.9
 22 06 2015  22 13  -14.5222 17849.8 -13559.1 -37.2210 22415.7
 22 06 2015  22 14  -14.5233 17850.8 -13559.1 -37.2194 22416.5
 22 06 2015  22 15  -14.5257 17849.2 -13558.2 -37.2201 22414.7
 22 06 2015  22 16  -14.5275 17848.4 -13558.4 -37.2217 22414.2
 22 06 2015  22 17  -14.5288 17848.6 -13558.2 -37.2209 22414.2
 22 06 2015  22 18  -14.5303 17844.4 -13557.0 -37.2250 22410.1
 22 06 2015  22 19  -14.5315 17841.7 -13556.4 -37.2280 22407.6
 22 06 2015  22 20  -14.5323 17841.8 -13556.6 -37.2284 22407.8
 22 06 2015  22 21  -14.5321 17842.4 -13557.0 -37.2281 22408.5
 22 06 2015  22 22  -14.5317 17842.8 -13557.1 -37.2277 22408.9
 22 06 2015  22 23  -14.5303 17842.9 -13557.5 -37.2285 22409.3
 22 06 2015  22 24  -14.5291 17841.8 -13557.0 -37.2292 22408.1
 22 06 2015  22 25  -14.5293 17841.1 -13556.8 -37.2298 22407.4
 22 06 2015  22 26  -14.5265 17842.8 -13557.4 -37.2284 22409.2
 22 06 2015  22 27  -14.5252 17843.0 -13556.5 -37.2263 22408.8
 22 06 2015  22 28  -14.5251 17842.5 -13556.3 -37.2267 22408.2
 22 06 2015  22 29  -14.5249 17841.8 -13556.5 -37.2281 22407.8
 22 06 2015  22 30  -14.5241 17842.3 -13556.9 -37.2282 22408.4
 22 06 2015  22 31  -14.5233 17843.3 -13557.1 -37.2271 22409.3
 22 06 2015  22 32  -14.5217 17844.1 -13557.2 -37.2260 22410.1
 22 06 2015  22 33  -14.5216 17844.1 -13556.4 -37.2244 22409.5
 22 06 2015  22 34  -14.5225 17843.4 -13555.6 -37.2239 22408.5
 22 06 2015  22 35  -14.5232 17842.4 -13555.8 -37.2257 22407.8
 22 06 2015  22 36  -14.5241 17841.7 -13555.3 -37.2257 22407.0
 22 06 2015  22 37  -14.5257 17841.3 -13555.5 -37.2268 22406.8
 22 06 2015  22 38  -14.5255 17841.9 -13555.7 -37.2264 22407.3
 22 06 2015  22 39  -14.5262 17841.9 -13555.7 -37.2263 22407.4
 22 06 2015  22 40  -14.5273 17840.9 -13555.3 -37.2272 22406.3
 22 06 2015  22 41  -14.5282 17840.2 -13555.4 -37.2282 22405.8
 22 06 2015  22 42  -14.5280 17840.1 -13555.6 -37.2288 22405.9
 22 06 2015  22 43  -14.5291 17839.5 -13555.4 -37.2293 22405.3
 22 06 2015  22 44  -14.5302 17839.8 -13555.4 -37.2288 22405.5
 22 06 2015  22 45  -14.5301 17840.5 -13555.7 -37.2284 22406.3
 22 06 2015  22 46  -14.5312 17839.2 -13555.2 -37.2294 22404.9
 22 06 2015  22 47  -14.5339 17836.9 -13554.8 -37.2322 22402.9
 22 06 2015  22 48  -14.5338 17836.6 -13554.4 -37.2319 22402.4
 22 06 2015  22 49  -14.5325 17837.6 -13555.1 -37.2317 22403.6
 22 06 2015  22 50  -14.5317 17839.2 -13555.6 -37.2304 22405.2
 22 06 2015  22 51  -14.5323 17839.0 -13555.3 -37.2298 22404.8
 22 06 2015  22 52  -14.5332 17838.2 -13554.8 -37.2303 22403.9
 22 06 2015  22 53  -14.5315 17838.7 -13554.9 -37.2296 22404.3
 22 06 2015  22 54  -14.5312 17836.4 -13554.6 -37.2325 22402.4
 22 06 2015  22 55  -14.5330 17834.7 -13554.2 -37.2344 22400.7
 22 06 2015  22 56  -14.5342 17834.7 -13554.3 -37.2345 22400.8
 22 06 2015  22 57  -14.5348 17836.4 -13555.1 -37.2337 22402.6
 22 06 2015  22 58  -14.5344 17836.6 -13555.2 -37.2335 22402.8
 22 06 2015  22 59  -14.5334 17837.3 -13555.2 -37.2324 22403.4
 22 06 2015  23 00  -14.5339 17838.0 -13555.5 -37.2319 22404.1
 22 06 2015  23 01  -14.5360 17838.3 -13555.4 -37.2312 22404.3
 22 06 2015  23 02  -14.5386 17838.1 -13555.1 -37.2311 22404.0
 22 06 2015  23 03  -14.5398 17838.5 -13555.2 -37.2306 22404.4
 22 06 2015  23 04  -14.5405 17838.5 -13555.4 -37.2310 22404.5
 22 06 2015  23 05  -14.5415 17838.9 -13555.5 -37.2305 22404.8
 22 06 2015  23 06  -14.5419 17839.5 -13555.4 -37.2295 22405.3
 22 06 2015  23 07  -14.5416 17840.5 -13555.9 -37.2287 22406.4
 22 06 2015  23 08  -14.5418 17841.4 -13556.1 -37.2280 22407.2
 22 06 2015  23 09  -14.5411 17843.3 -13556.2 -37.2252 22408.8
 22 06 2015  23 10  -14.5367 17851.2 -13557.3 -37.2152 22415.8
 22 06 2015  23 11  -14.5399 17854.2 -13558.0 -37.2120 22418.5
 22 06 2015  23 12  -14.5445 17852.4 -13555.5 -37.2097 22415.6
 22 06 2015  23 13  -14.5447 17851.9 -13554.5 -37.2084 22414.6
 22 06 2015  23 14  -14.5439 17853.1 -13555.2 -37.2080 22416.0
 22 06 2015  23 15  -14.5451 17854.9 -13555.4 -37.2056 22417.5
 22 06 2015  23 16  -14.5483 17852.4 -13554.4 -37.2075 22414.9
 22 06 2015  23 17  -14.5530 17847.2 -13553.2 -37.2130 22410.1
 22 06 2015  23 18  -14.5557 17845.8 -13553.1 -37.2149 22408.9
 22 06 2015  23 19  -14.5553 17847.0 -13553.6 -37.2142 22410.2
 22 06 2015  23 20  -14.5544 17848.0 -13554.4 -37.2142 22411.5
 22 06 2015  23 21  -14.5550 17846.5 -13554.2 -37.2162 22410.2
 22 06 2015  23 22  -14.5563 17843.9 -13553.5 -37.2188 22407.6
 22 06 2015  23 23  -14.5561 17843.1 -13553.7 -37.2205 22407.1
 22 06 2015  23 24  -14.5559 17843.1 -13553.7 -37.2205 22407.1
 22 06 2015  23 25  -14.5553 17843.7 -13553.9 -37.2199 22407.7
 22 06 2015  23 26  -14.5553 17844.1 -13554.6 -37.2206 22408.5
 22 06 2015  23 27  -14.5555 17844.1 -13554.3 -37.2200 22408.3
 22 06 2015  23 28  -14.5557 17844.4 -13554.6 -37.2203 22408.7
 22 06 2015  23 29  -14.5557 17845.5 -13555.0 -37.2193 22409.8
 22 06 2015  23 30  -14.5543 17847.2 -13555.3 -37.2173 22411.4
 22 06 2015  23 31  -14.5548 17847.3 -13554.9 -37.2164 22411.2
 22 06 2015  23 32  -14.5559 17846.8 -13554.5 -37.2164 22410.6
 22 06 2015  23 33  -14.5548 17846.4 -13554.7 -37.2173 22410.3
 22 06 2015  23 34  -14.5542 17846.5 -13554.9 -37.2176 22410.6
 22 06 2015  23 35  -14.5544 17847.5 -13554.9 -37.2160 22411.4
 22 06 2015  23 36  -14.5545 17848.6 -13555.0 -37.2144 22412.2
 22 06 2015  23 37  -14.5549 17849.6 -13554.7 -37.2125 22412.9
 22 06 2015  23 38  -14.5556 17850.5 -13554.8 -37.2113 22413.7
 22 06 2015  23 39  -14.5550 17853.2 -13555.7 -37.2088 22416.3
 22 06 2015  23 40  -14.5538 17856.5 -13556.1 -37.2047 22419.2
 22 06 2015  23 41  -14.5522 17858.6 -13555.9 -37.2008 22420.7
 22 06 2015  23 42  -14.5516 17857.6 -13555.2 -37.2009 22419.6
 22 06 2015  23 43  -14.5513 17857.3 -13554.5 -37.2000 22418.9
 22 06 2015  23 44  -14.5500 17857.6 -13554.1 -37.1988 22418.9
 22 06 2015  23 45  -14.5494 17858.1 -13553.9 -37.1976 22419.2
 22 06 2015  23 46  -14.5502 17856.9 -13553.8 -37.1992 22418.2
 22 06 2015  23 47  -14.5521 17856.0 -13553.3 -37.1996 22417.2
 22 06 2015  23 48  -14.5510 17856.4 -13553.1 -37.1987 22417.4
 22 06 2015  23 49  -14.5494 17857.6 -13553.7 -37.1981 22418.7
 22 06 2015  23 50  -14.5491 17857.9 -13553.2 -37.1964 22418.6
 22 06 2015  23 51  -14.5481 17857.7 -13553.4 -37.1972 22418.6
 22 06 2015  23 52  -14.5458 17857.7 -13553.1 -37.1966 22418.3
 22 06 2015  23 53  -14.5439 17857.6 -13553.0 -37.1965 22418.2
 22 06 2015  23 54  -14.5429 17856.0 -13552.7 -37.1984 22416.8
 22 06 2015  23 55  -14.5426 17857.7 -13553.1 -37.1966 22418.4
 22 06 2015  23 56  -14.5392 17859.8 -13553.2 -37.1935 22420.1
 22 06 2015  23 57  -14.5379 17860.6 -13553.5 -37.1930 22421.0
