CACHOEIRA PAULISTA EMBRACE-05 <227> 1 Min. Reported data

 DD MM YYYY  HH MM   D(Deg)  H(nT)   Z(nT)   I(Deg)   F(nT)

 15 08 2015  00 00  -21.5584 18623.1 -13757.9 -36.4551 23153.8
 15 08 2015  00 01  -21.5577 18623.8 -13757.8 -36.4541 23154.3
 15 08 2015  00 02  -21.5570 18624.4 -13757.7 -36.4530 23154.7
 15 08 2015  00 03  -21.5565 18624.8 -13757.6 -36.4522 23155.0
 15 08 2015  00 04  -21.5565 18624.9 -13757.5 -36.4518 23155.1
 15 08 2015  00 05  -21.5567 18625.0 -13757.5 -36.4516 23155.1
 15 08 2015  00 06  -21.5567 18625.0 -13757.4 -36.4515 23155.1
 15 08 2015  00 07  -21.5564 18625.1 -13757.4 -36.4513 23155.1
 15 08 2015  00 08  -21.5562 18625.0 -13757.4 -36.4514 23155.1
 15 08 2015  00 09  -21.5561 18624.9 -13757.4 -36.4515 23155.0
 15 08 2015  00 10  -21.5563 18624.7 -13757.4 -36.4519 23154.8
 15 08 2015  00 11  -21.5560 18624.7 -13757.5 -36.4520 23154.9
 15 08 2015  00 12  -21.5553 18624.9 -13757.5 -36.4517 23155.0
 15 08 2015  00 13  -21.5547 18625.6 -13757.4 -36.4505 23155.6
 15 08 2015  00 14  -21.5549 18625.5 -13757.3 -36.4506 23155.4
 15 08 2015  00 15  -21.5542 18626.0 -13757.3 -36.4497 23155.8
 15 08 2015  00 16  -21.5548 18625.8 -13757.2 -36.4500 23155.6
 15 08 2015  00 17  -21.5546 18626.2 -13757.2 -36.4494 23155.9
 15 08 2015  00 18  -21.5543 18626.3 -13757.1 -36.4490 23155.9
 15 08 2015  00 19  -21.5540 18626.5 -13757.1 -36.4487 23156.1
 15 08 2015  00 20  -21.5527 18626.9 -13757.1 -36.4481 23156.4
 15 08 2015  00 21  -21.5528 18626.8 -13757.0 -36.4480 23156.3
 15 08 2015  00 22  -21.5524 18627.0 -13757.1 -36.4478 23156.5
 15 08 2015  00 23  -21.5515 18627.3 -13757.0 -36.4471 23156.7
 15 08 2015  00 24  -21.5520 18626.8 -13757.0 -36.4481 23156.3
 15 08 2015  00 25  -21.5510 18627.2 -13757.1 -36.4476 23156.6
 15 08 2015  00 26  -21.5506 18627.3 -13757.1 -36.4476 23156.7
 15 08 2015  00 27  -21.5511 18627.3 -13757.1 -36.4474 23156.8
 15 08 2015  00 28  -21.5510 18627.6 -13757.2 -36.4471 23157.0
 15 08 2015  00 29  -21.5503 18627.8 -13757.1 -36.4467 23157.1
 15 08 2015  00 30  -21.5508 18627.7 -13757.1 -36.4470 23157.0
 15 08 2015  00 31  -21.5502 18628.0 -13757.1 -36.4466 23157.3
 15 08 2015  00 32  -21.5494 18627.7 -13757.2 -36.4470 23157.1
 15 08 2015  00 33  -21.5486 18627.9 -13757.2 -36.4468 23157.3
 15 08 2015  00 34  -21.5489 18627.9 -13757.2 -36.4469 23157.3
 15 08 2015  00 35  -21.5493 18627.8 -13757.3 -36.4470 23157.2
 15 08 2015  00 36  -21.5494 18627.6 -13757.3 -36.4474 23157.1
 15 08 2015  00 37  -21.5497 18627.5 -13757.3 -36.4476 23157.0
 15 08 2015  00 38  -21.5499 18627.4 -13757.3 -36.4477 23157.0
 15 08 2015  00 39  -21.5500 18627.8 -13757.3 -36.4471 23157.2
 15 08 2015  00 40  -21.5503 18627.9 -13757.2 -36.4467 23157.3
 15 08 2015  00 41  -21.5513 18627.9 -13757.2 -36.4468 23157.2
 15 08 2015  00 42  -21.5518 18628.0 -13757.1 -36.4465 23157.3
 15 08 2015  00 43  -21.5520 18627.9 -13757.2 -36.4467 23157.3
 15 08 2015  00 44  -21.5520 18627.8 -13757.2 -36.4468 23157.2
 15 08 2015  00 45  -21.5519 18627.9 -13757.2 -36.4468 23157.2
 15 08 2015  00 46  -21.5520 18627.8 -13757.2 -36.4468 23157.2
 15 08 2015  00 47  -21.5523 18627.6 -13757.2 -36.4473 23157.1
 15 08 2015  00 48  -21.5524 18627.7 -13757.3 -36.4473 23157.2
 15 08 2015  00 49  -21.5525 18627.8 -13757.3 -36.4472 23157.3
 15 08 2015  00 50  -21.5522 18627.7 -13757.3 -36.4473 23157.2
 15 08 2015  00 51  -21.5526 18627.6 -13757.4 -36.4475 23157.1
 15 08 2015  00 52  -21.5525 18627.6 -13757.4 -36.4477 23157.2
 15 08 2015  00 53  -21.5524 18627.4 -13757.5 -36.4481 23157.1
 15 08 2015  00 54  -21.5525 18627.2 -13757.6 -36.4485 23156.9
 15 08 2015  00 55  -21.5524 18627.2 -13757.6 -36.4487 23156.9
 15 08 2015  00 56  -21.5528 18627.0 -13757.7 -36.4490 23156.8
 15 08 2015  00 57  -21.5528 18626.9 -13757.7 -36.4492 23156.8
 15 08 2015  00 58  -21.5528 18626.9 -13757.7 -36.4493 23156.8
 15 08 2015  00 59  -21.5529 18626.8 -13757.8 -36.4497 23156.7
 15 08 2015  01 00  -21.5529 18626.7 -13757.9 -36.4498 23156.7
 15 08 2015  01 01  -21.5534 18626.4 -13757.9 -36.4503 23156.5
 15 08 2015  01 02  -21.5543 18626.4 -13757.9 -36.4505 23156.4
 15 08 2015  01 03  -21.5546 18626.4 -13757.9 -36.4504 23156.5
 15 08 2015  01 04  -21.5553 18626.0 -13758.0 -36.4510 23156.2
 15 08 2015  01 05  -21.5562 18626.0 -13758.0 -36.4511 23156.2
 15 08 2015  01 06  -21.5559 18626.0 -13758.0 -36.4512 23156.3
 15 08 2015  01 07  -21.5557 18625.9 -13758.1 -36.4514 23156.2
 15 08 2015  01 08  -21.5558 18626.0 -13758.1 -36.4514 23156.2
 15 08 2015  01 09  -21.5559 18626.0 -13758.1 -36.4514 23156.2
 15 08 2015  01 10  -21.5562 18626.0 -13758.1 -36.4513 23156.2
 15 08 2015  01 11  -21.5568 18625.6 -13758.1 -36.4520 23156.0
 15 08 2015  01 12  -21.5570 18625.5 -13758.1 -36.4521 23155.9
 15 08 2015  01 13  -21.5568 18625.7 -13758.2 -36.4519 23156.1
 15 08 2015  01 14  -21.5574 18625.6 -13758.2 -36.4521 23156.0
 15 08 2015  01 15  -21.5580 18625.5 -13758.2 -36.4523 23155.9
 15 08 2015  01 16  -21.5584 18625.4 -13758.2 -36.4524 23155.9
 15 08 2015  01 17  -21.5587 18625.4 -13758.2 -36.4525 23155.9
 15 08 2015  01 18  -21.5589 18625.3 -13758.2 -36.4527 23155.8
 15 08 2015  01 19  -21.5594 18625.2 -13758.2 -36.4527 23155.7
 15 08 2015  01 20  -21.5600 18625.2 -13758.3 -36.4529 23155.7
 15 08 2015  01 21  -21.5605 18625.0 -13758.2 -36.4530 23155.6
 15 08 2015  01 22  -21.5614 18624.7 -13758.3 -36.4536 23155.3
 15 08 2015  01 23  -21.5624 18624.4 -13758.3 -36.4542 23155.1
 15 08 2015  01 24  -21.5629 18624.1 -13758.4 -36.4547 23154.9
 15 08 2015  01 25  -21.5632 18624.0 -13758.4 -36.4550 23154.8
 15 08 2015  01 26  -21.5634 18623.7 -13758.5 -36.4556 23154.7
 15 08 2015  01 27  -21.5638 18623.3 -13758.6 -36.4563 23154.4
 15 08 2015  01 28  -21.5637 18623.1 -13758.6 -36.4566 23154.3
 15 08 2015  01 29  -21.5641 18623.0 -13758.7 -36.4571 23154.2
 15 08 2015  01 30  -21.5643 18622.9 -13758.8 -36.4573 23154.1
 15 08 2015  01 31  -21.5645 18622.9 -13758.8 -36.4572 23154.2
 15 08 2015  01 32  -21.5647 18622.8 -13758.8 -36.4575 23154.1
 15 08 2015  01 33  -21.5650 18622.7 -13758.8 -36.4577 23154.0
 15 08 2015  01 34  -21.5653 18622.5 -13758.8 -36.4580 23153.9
 15 08 2015  01 35  -21.5650 18622.6 -13758.9 -36.4579 23154.0
 15 08 2015  01 36  -21.5648 18622.6 -13758.9 -36.4579 23154.0
 15 08 2015  01 37  -21.5651 18622.5 -13758.8 -36.4580 23153.9
 15 08 2015  01 38  -21.5653 18622.4 -13758.9 -36.4583 23153.8
 15 08 2015  01 39  -21.5654 18622.3 -13759.0 -36.4584 23153.8
 15 08 2015  01 40  -21.5656 18622.2 -13759.0 -36.4586 23153.7
 15 08 2015  01 41  -21.5659 18621.7 -13759.1 -36.4596 23153.4
 15 08 2015  01 42  -21.5659 18621.4 -13759.1 -36.4602 23153.2
 15 08 2015  01 43  -21.5665 18621.0 -13759.3 -36.4610 23153.0
 15 08 2015  01 44  -21.5675 18620.5 -13759.3 -36.4618 23152.6
 15 08 2015  01 45  -21.5678 18620.2 -13759.4 -36.4625 23152.4
 15 08 2015  01 46  -21.5684 18619.6 -13759.5 -36.4635 23152.0
 15 08 2015  01 47  -21.5684 18619.2 -13759.7 -36.4645 23151.7
 15 08 2015  01 48  -21.5687 18618.8 -13759.7 -36.4653 23151.4
 15 08 2015  01 49  -21.5689 18618.3 -13759.8 -36.4661 23151.1
 15 08 2015  01 50  -21.5690 18618.2 -13759.9 -36.4664 23151.1
 15 08 2015  01 51  -21.5692 18618.0 -13760.0 -36.4669 23150.9
 15 08 2015  01 52  -21.5694 18617.7 -13760.1 -36.4675 23150.8
 15 08 2015  01 53  -21.5700 18617.4 -13760.1 -36.4680 23150.5
 15 08 2015  01 54  -21.5702 18617.1 -13760.2 -36.4685 23150.4
 15 08 2015  01 55  -21.5703 18616.8 -13760.2 -36.4690 23150.1
 15 08 2015  01 56  -21.5705 18616.5 -13760.3 -36.4696 23150.0
 15 08 2015  01 57  -21.5699 18616.4 -13760.4 -36.4699 23149.9
 15 08 2015  01 58  -21.5697 18616.3 -13760.4 -36.4702 23149.8
 15 08 2015  01 59  -21.5696 18616.2 -13760.4 -36.4704 23149.8
 15 08 2015  02 00  -21.5689 18616.5 -13760.4 -36.4699 23150.0
 15 08 2015  02 01  -21.5688 18616.7 -13760.3 -36.4695 23150.2
 15 08 2015  02 02  -21.5680 18617.2 -13760.2 -36.4686 23150.4
 15 08 2015  02 03  -21.5676 18617.4 -13760.2 -36.4680 23150.6
 15 08 2015  02 04  -21.5673 18617.5 -13760.1 -36.4677 23150.7
 15 08 2015  02 05  -21.5664 18617.9 -13760.0 -36.4672 23150.9
 15 08 2015  02 06  -21.5657 18618.0 -13760.0 -36.4669 23151.0
 15 08 2015  02 07  -21.5651 18618.2 -13760.0 -36.4665 23151.2
 15 08 2015  02 08  -21.5646 18618.3 -13759.9 -36.4663 23151.2
 15 08 2015  02 09  -21.5643 18618.3 -13759.9 -36.4664 23151.1
 15 08 2015  02 10  -21.5640 18618.2 -13759.9 -36.4666 23151.1
 15 08 2015  02 11  -21.5640 18618.1 -13760.0 -36.4667 23151.1
 15 08 2015  02 12  -21.5640 18618.2 -13760.0 -36.4666 23151.1
 15 08 2015  02 13  -21.5642 18618.1 -13760.0 -36.4668 23151.0
 15 08 2015  02 14  -21.5644 18617.9 -13760.0 -36.4671 23150.8
 15 08 2015  02 15  -21.5644 18617.7 -13760.0 -36.4673 23150.8
 15 08 2015  02 16  -21.5641 18617.8 -13760.0 -36.4673 23150.8
 15 08 2015  02 17  -21.5647 18617.8 -13760.0 -36.4672 23150.8
 15 08 2015  02 18  -21.5656 18617.8 -13760.0 -36.4670 23150.8
 15 08 2015  02 19  -21.5667 18617.6 -13759.9 -36.4673 23150.6
 15 08 2015  02 20  -21.5673 18617.5 -13759.9 -36.4674 23150.6
 15 08 2015  02 21  -21.5675 18617.5 -13759.9 -36.4675 23150.5
 15 08 2015  02 22  -21.5677 18617.4 -13759.9 -36.4676 23150.4
 15 08 2015  02 23  -21.5679 18617.4 -13759.9 -36.4677 23150.5
 15 08 2015  02 24  -21.5681 18617.4 -13759.9 -36.4675 23150.4
 15 08 2015  02 25  -21.5681 18617.5 -13759.9 -36.4674 23150.5
 15 08 2015  02 26  -21.5679 18617.7 -13759.9 -36.4671 23150.7
 15 08 2015  02 27  -21.5677 18617.8 -13759.8 -36.4668 23150.7
 15 08 2015  02 28  -21.5673 18618.0 -13759.8 -36.4665 23150.9
 15 08 2015  02 29  -21.5667 18618.2 -13759.7 -36.4660 23151.0
 15 08 2015  02 30  -21.5669 18618.4 -13759.7 -36.4657 23151.1
 15 08 2015  02 31  -21.5670 18618.5 -13759.6 -36.4654 23151.2
 15 08 2015  02 32  -21.5666 18618.7 -13759.6 -36.4652 23151.3
 15 08 2015  02 33  -21.5663 18618.8 -13759.6 -36.4648 23151.4
 15 08 2015  02 34  -21.5663 18618.8 -13759.6 -36.4649 23151.4
 15 08 2015  02 35  -21.5661 18619.0 -13759.6 -36.4646 23151.5
 15 08 2015  02 36  -21.5661 18619.0 -13759.6 -36.4647 23151.5
 15 08 2015  02 37  -21.5657 18619.1 -13759.6 -36.4644 23151.6
 15 08 2015  02 38  -21.5654 18619.1 -13759.6 -36.4644 23151.6
 15 08 2015  02 39  -21.5651 18619.1 -13759.6 -36.4644 23151.6
 15 08 2015  02 40  -21.5648 18619.1 -13759.6 -36.4645 23151.7
 15 08 2015  02 41  -21.5643 18619.2 -13759.7 -36.4644 23151.8
 15 08 2015  02 42  -21.5638 18619.4 -13759.7 -36.4642 23151.9
 15 08 2015  02 43  -21.5634 18619.8 -13759.6 -36.4636 23152.2
 15 08 2015  02 44  -21.5631 18620.2 -13759.6 -36.4628 23152.5
 15 08 2015  02 45  -21.5629 18620.6 -13759.5 -36.4620 23152.8
 15 08 2015  02 46  -21.5630 18620.8 -13759.5 -36.4616 23152.9
 15 08 2015  02 47  -21.5632 18620.9 -13759.4 -36.4615 23152.9
 15 08 2015  02 48  -21.5635 18620.9 -13759.3 -36.4613 23152.9
 15 08 2015  02 49  -21.5635 18621.1 -13759.3 -36.4610 23153.1
 15 08 2015  02 50  -21.5633 18621.3 -13759.3 -36.4607 23153.2
 15 08 2015  02 51  -21.5631 18621.5 -13759.2 -36.4602 23153.3
 15 08 2015  02 52  -21.5631 18621.9 -13759.2 -36.4597 23153.6
 15 08 2015  02 53  -21.5626 18622.2 -13759.1 -36.4590 23153.8
 15 08 2015  02 54  -21.5620 18622.6 -13759.1 -36.4582 23154.1
 15 08 2015  02 55  -21.5607 18623.5 -13759.0 -36.4568 23154.8
 15 08 2015  02 56  -21.5596 18624.4 -13758.8 -36.4552 23155.4
 15 08 2015  02 57  -21.5586 18625.3 -13758.7 -36.4536 23156.1
 15 08 2015  02 58  -21.5581 18626.0 -13758.6 -36.4523 23156.6
 15 08 2015  02 59  -21.5577 18626.6 -13758.5 -36.4511 23157.0
 15 08 2015  03 00  -21.5576 18627.0 -13758.4 -36.4505 23157.2
 15 08 2015  03 01  -21.5582 18626.9 -13758.3 -36.4505 23157.1
 15 08 2015  03 02  -21.5590 18626.4 -13758.3 -36.4513 23156.7
 15 08 2015  03 03  -21.5598 18625.9 -13758.4 -36.4522 23156.4
 15 08 2015  03 04  -21.5604 18625.5 -13758.5 -36.4529 23156.1
 15 08 2015  03 05  -21.5610 18625.5 -13758.6 -36.4530 23156.1
 15 08 2015  03 06  -21.5615 18625.6 -13758.6 -36.4529 23156.2
 15 08 2015  03 07  -21.5617 18625.7 -13758.6 -36.4528 23156.3
 15 08 2015  03 08  -21.5618 18625.8 -13758.6 -36.4527 23156.4
 15 08 2015  03 09  -21.5622 18625.8 -13758.6 -36.4527 23156.4
 15 08 2015  03 10  -21.5624 18625.9 -13758.6 -36.4525 23156.5
 15 08 2015  03 11  -21.5628 18625.9 -13758.6 -36.4525 23156.5
 15 08 2015  03 12  -21.5625 18625.9 -13758.6 -36.4526 23156.5
 15 08 2015  03 13  -21.5624 18625.8 -13758.6 -36.4527 23156.4
 15 08 2015  03 14  -21.5624 18625.8 -13758.7 -36.4529 23156.4
 15 08 2015  03 15  -21.5622 18625.9 -13758.7 -36.4527 23156.5
 15 08 2015  03 16  -21.5622 18626.1 -13758.6 -36.4523 23156.7
 15 08 2015  03 17  -21.5625 18626.2 -13758.6 -36.4521 23156.7
 15 08 2015  03 18  -21.5632 18626.2 -13758.6 -36.4520 23156.7
 15 08 2015  03 19  -21.5639 18626.1 -13758.5 -36.4520 23156.6
 15 08 2015  03 20  -21.5642 18626.0 -13758.5 -36.4521 23156.5
 15 08 2015  03 21  -21.5644 18625.8 -13758.5 -36.4525 23156.3
 15 08 2015  03 22  -21.5648 18625.3 -13758.6 -36.4533 23156.0
 15 08 2015  03 23  -21.5652 18624.5 -13758.6 -36.4547 23155.4
 15 08 2015  03 24  -21.5658 18623.7 -13758.8 -36.4561 23154.9
 15 08 2015  03 25  -21.5659 18623.4 -13759.0 -36.4569 23154.7
 15 08 2015  03 26  -21.5655 18623.5 -13759.0 -36.4568 23154.8
 15 08 2015  03 27  -21.5651 18623.7 -13759.0 -36.4565 23155.0
 15 08 2015  03 28  -21.5648 18623.7 -13759.0 -36.4565 23155.0
 15 08 2015  03 29  -21.5648 18623.9 -13759.0 -36.4562 23155.1
 15 08 2015  03 30  -21.5647 18624.2 -13758.9 -36.4556 23155.3
 15 08 2015  03 31  -21.5643 18624.5 -13758.9 -36.4551 23155.5
 15 08 2015  03 32  -21.5640 18624.7 -13758.8 -36.4547 23155.6
 15 08 2015  03 33  -21.5639 18624.6 -13758.8 -36.4547 23155.6
 15 08 2015  03 34  -21.5638 18624.6 -13758.8 -36.4547 23155.5
 15 08 2015  03 35  -21.5642 18624.3 -13758.8 -36.4553 23155.3
 15 08 2015  03 36  -21.5649 18623.8 -13758.9 -36.4560 23155.0
 15 08 2015  03 37  -21.5661 18623.1 -13758.9 -36.4573 23154.4
 15 08 2015  03 38  -21.5675 18622.4 -13759.0 -36.4585 23153.9
 15 08 2015  03 39  -21.5692 18621.5 -13759.2 -36.4601 23153.3
 15 08 2015  03 40  -21.5702 18620.8 -13759.3 -36.4614 23152.8
 15 08 2015  03 41  -21.5706 18620.4 -13759.4 -36.4622 23152.5
 15 08 2015  03 42  -21.5703 18620.3 -13759.5 -36.4624 23152.5
 15 08 2015  03 43  -21.5696 18620.3 -13759.5 -36.4625 23152.6
 15 08 2015  03 44  -21.5687 18620.6 -13759.6 -36.4623 23152.8
 15 08 2015  03 45  -21.5678 18620.9 -13759.5 -36.4618 23153.0
 15 08 2015  03 46  -21.5667 18621.3 -13759.5 -36.4611 23153.3
 15 08 2015  03 47  -21.5660 18621.5 -13759.5 -36.4607 23153.5
 15 08 2015  03 48  -21.5656 18621.9 -13759.4 -36.4599 23153.7
 15 08 2015  03 49  -21.5654 18622.1 -13759.3 -36.4594 23153.9
 15 08 2015  03 50  -21.5655 18622.3 -13759.2 -36.4590 23154.0
 15 08 2015  03 51  -21.5656 18622.4 -13759.1 -36.4586 23154.0
 15 08 2015  03 52  -21.5660 18622.6 -13759.0 -36.4583 23154.1
 15 08 2015  03 53  -21.5665 18622.7 -13759.0 -36.4580 23154.1
 15 08 2015  03 54  -21.5667 18622.8 -13758.9 -36.4577 23154.2
 15 08 2015  03 55  -21.5668 18623.0 -13758.9 -36.4574 23154.3
 15 08 2015  03 56  -21.5670 18623.1 -13758.8 -36.4571 23154.3
 15 08 2015  03 57  -21.5671 18623.1 -13758.8 -36.4570 23154.4
 15 08 2015  03 58  -21.5673 18623.2 -13758.7 -36.4568 23154.4
 15 08 2015  03 59  -21.5677 18623.2 -13758.7 -36.4567 23154.4
 15 08 2015  04 00  -21.5680 18623.3 -13758.7 -36.4565 23154.4
 15 08 2015  04 01  -21.5678 18623.4 -13758.6 -36.4563 23154.5
 15 08 2015  04 02  -21.5675 18623.5 -13758.6 -36.4561 23154.6
 15 08 2015  04 03  -21.5670 18623.5 -13758.6 -36.4561 23154.6
 15 08 2015  04 04  -21.5668 18623.5 -13758.7 -36.4561 23154.6
 15 08 2015  04 05  -21.5667 18623.5 -13758.7 -36.4562 23154.6
 15 08 2015  04 06  -21.5667 18623.6 -13758.7 -36.4561 23154.7
 15 08 2015  04 07  -21.5665 18623.7 -13758.7 -36.4559 23154.7
 15 08 2015  04 08  -21.5663 18623.8 -13758.6 -36.4556 23154.8
 15 08 2015  04 09  -21.5661 18624.0 -13758.6 -36.4552 23155.0
 15 08 2015  04 10  -21.5657 18624.3 -13758.5 -36.4547 23155.2
 15 08 2015  04 11  -21.5655 18624.5 -13758.5 -36.4544 23155.3
 15 08 2015  04 12  -21.5659 18624.4 -13758.5 -36.4545 23155.2
 15 08 2015  04 13  -21.5661 18624.1 -13758.5 -36.4549 23155.0
 15 08 2015  04 14  -21.5665 18623.8 -13758.5 -36.4554 23154.8
 15 08 2015  04 15  -21.5666 18623.7 -13758.6 -36.4557 23154.7
 15 08 2015  04 16  -21.5666 18623.8 -13758.6 -36.4556 23154.8
 15 08 2015  04 17  -21.5669 18623.8 -13758.6 -36.4555 23154.8
 15 08 2015  04 18  -21.5664 18624.0 -13758.6 -36.4553 23155.0
 15 08 2015  04 19  -21.5663 18623.9 -13758.6 -36.4555 23154.9
 15 08 2015  04 20  -21.5661 18623.8 -13758.7 -36.4556 23154.9
 15 08 2015  04 21  -21.5665 18623.4 -13758.7 -36.4564 23154.6
 15 08 2015  04 22  -21.5663 18623.3 -13758.8 -36.4568 23154.5
 15 08 2015  04 23  -21.5661 18623.2 -13758.9 -36.4570 23154.5
 15 08 2015  04 24  -21.5660 18623.2 -13759.0 -36.4572 23154.5
 15 08 2015  04 25  -21.5658 18623.4 -13759.0 -36.4568 23154.7
 15 08 2015  04 26  -21.5658 18623.6 -13758.9 -36.4565 23154.8
 15 08 2015  04 27  -21.5656 18623.7 -13758.9 -36.4563 23154.9
 15 08 2015  04 28  -21.5654 18623.7 -13758.9 -36.4564 23154.9
 15 08 2015  04 29  -21.5654 18623.6 -13758.9 -36.4565 23154.8
 15 08 2015  04 30  -21.5654 18623.6 -13758.9 -36.4565 23154.8
 15 08 2015  04 31  -21.5657 18623.5 -13758.9 -36.4565 23154.8
 15 08 2015  04 32  -21.5656 18623.7 -13758.8 -36.4562 23154.9
 15 08 2015  04 33  -21.5660 18623.8 -13758.8 -36.4559 23154.9
 15 08 2015  04 34  -21.5663 18624.0 -13758.7 -36.4555 23155.1
 15 08 2015  04 35  -21.5667 18624.1 -13758.7 -36.4553 23155.1
 15 08 2015  04 36  -21.5670 18624.4 -13758.7 -36.4549 23155.3
 15 08 2015  04 37  -21.5679 18624.3 -13758.7 -36.4550 23155.2
 15 08 2015  04 38  -21.5680 18624.4 -13758.6 -36.4548 23155.3
 15 08 2015  04 39  -21.5685 18624.3 -13758.7 -36.4550 23155.2
 15 08 2015  04 40  -21.5686 18624.4 -13758.6 -36.4548 23155.3
 15 08 2015  04 41  -21.5689 18624.4 -13758.6 -36.4548 23155.3
 15 08 2015  04 42  -21.5690 18624.4 -13758.6 -36.4547 23155.3
 15 08 2015  04 43  -21.5691 18624.5 -13758.6 -36.4547 23155.4
 15 08 2015  04 44  -21.5690 18624.5 -13758.6 -36.4546 23155.3
 15 08 2015  04 45  -21.5689 18624.4 -13758.6 -36.4547 23155.3
 15 08 2015  04 46  -21.5690 18624.4 -13758.7 -36.4548 23155.3
 15 08 2015  04 47  -21.5696 18624.3 -13758.7 -36.4551 23155.2
 15 08 2015  04 48  -21.5702 18624.2 -13758.7 -36.4552 23155.2
 15 08 2015  04 49  -21.5708 18624.2 -13758.7 -36.4551 23155.2
 15 08 2015  04 50  -21.5713 18624.2 -13758.6 -36.4549 23155.1
 15 08 2015  04 51  -21.5714 18624.3 -13758.6 -36.4548 23155.1
 15 08 2015  04 52  -21.5715 18624.1 -13758.6 -36.4551 23155.1
 15 08 2015  04 53  -21.5716 18624.0 -13758.7 -36.4554 23155.0
 15 08 2015  04 54  -21.5716 18623.8 -13758.7 -36.4557 23154.9
 15 08 2015  04 55  -21.5719 18623.7 -13758.7 -36.4559 23154.8
 15 08 2015  04 56  -21.5718 18623.7 -13758.7 -36.4560 23154.8
 15 08 2015  04 57  -21.5718 18623.6 -13758.7 -36.4562 23154.7
 15 08 2015  04 58  -21.5718 18623.5 -13758.7 -36.4563 23154.6
 15 08 2015  04 59  -21.5716 18623.4 -13758.8 -36.4566 23154.5
 15 08 2015  05 00  -21.5714 18623.3 -13758.8 -36.4568 23154.5
 15 08 2015  05 01  -21.5713 18623.2 -13758.8 -36.4569 23154.4
 15 08 2015  05 02  -21.5710 18623.2 -13758.8 -36.4569 23154.4
 15 08 2015  05 03  -21.5708 18623.2 -13758.8 -36.4569 23154.4
 15 08 2015  05 04  -21.5709 18623.2 -13758.8 -36.4569 23154.5
 15 08 2015  05 05  -21.5709 18623.2 -13758.8 -36.4568 23154.5
 15 08 2015  05 06  -21.5708 18623.3 -13758.8 -36.4567 23154.5
 15 08 2015  05 07  -21.5706 18623.4 -13758.8 -36.4565 23154.6
 15 08 2015  05 08  -21.5703 18623.5 -13758.7 -36.4563 23154.6
 15 08 2015  05 09  -21.5702 18623.5 -13758.7 -36.4561 23154.7
 15 08 2015  05 10  -21.5703 18623.6 -13758.7 -36.4560 23154.7
 15 08 2015  05 11  -21.5705 18623.6 -13758.6 -36.4560 23154.6
 15 08 2015  05 12  -21.5704 18623.6 -13758.6 -36.4559 23154.7
 15 08 2015  05 13  -21.5703 18623.7 -13758.6 -36.4557 23154.8
 15 08 2015  05 14  -21.5703 18623.8 -13758.6 -36.4556 23154.8
 15 08 2015  05 15  -21.5705 18623.8 -13758.6 -36.4555 23154.8
 15 08 2015  05 16  -21.5707 18623.7 -13758.5 -36.4555 23154.7
 15 08 2015  05 17  -21.5709 18623.7 -13758.5 -36.4555 23154.7
 15 08 2015  05 18  -21.5710 18623.7 -13758.5 -36.4556 23154.6
 15 08 2015  05 19  -21.5711 18623.6 -13758.5 -36.4557 23154.6
 15 08 2015  05 20  -21.5711 18623.5 -13758.5 -36.4558 23154.5
 15 08 2015  05 21  -21.5710 18623.4 -13758.5 -36.4560 23154.4
 15 08 2015  05 22  -21.5709 18623.3 -13758.5 -36.4562 23154.3
 15 08 2015  05 23  -21.5709 18623.1 -13758.5 -36.4564 23154.2
 15 08 2015  05 24  -21.5707 18623.2 -13758.5 -36.4564 23154.3
 15 08 2015  05 25  -21.5703 18623.3 -13758.6 -36.4563 23154.4
 15 08 2015  05 26  -21.5700 18623.4 -13758.6 -36.4560 23154.5
 15 08 2015  05 27  -21.5696 18623.6 -13758.5 -36.4558 23154.6
 15 08 2015  05 28  -21.5690 18623.7 -13758.5 -36.4555 23154.7
 15 08 2015  05 29  -21.5686 18623.8 -13758.5 -36.4554 23154.8
 15 08 2015  05 30  -21.5679 18623.9 -13758.5 -36.4552 23154.9
 15 08 2015  05 31  -21.5674 18624.0 -13758.5 -36.4550 23154.9
 15 08 2015  05 32  -21.5670 18624.2 -13758.5 -36.4548 23155.0
 15 08 2015  05 33  -21.5668 18624.2 -13758.5 -36.4547 23155.1
 15 08 2015  05 34  -21.5667 18624.2 -13758.5 -36.4547 23155.1
 15 08 2015  05 35  -21.5666 18624.2 -13758.5 -36.4546 23155.1
 15 08 2015  05 36  -21.5667 18624.2 -13758.5 -36.4548 23155.1
 15 08 2015  05 37  -21.5670 18624.2 -13758.5 -36.4548 23155.0
 15 08 2015  05 38  -21.5673 18624.2 -13758.5 -36.4547 23155.0
 15 08 2015  05 39  -21.5676 18624.2 -13758.5 -36.4547 23155.0
 15 08 2015  05 40  -21.5678 18624.2 -13758.5 -36.4548 23155.0
 15 08 2015  05 41  -21.5679 18624.0 -13758.5 -36.4550 23154.9
 15 08 2015  05 42  -21.5677 18624.0 -13758.5 -36.4552 23154.9
 15 08 2015  05 43  -21.5675 18623.9 -13758.5 -36.4553 23154.9
 15 08 2015  05 44  -21.5676 18623.9 -13758.5 -36.4553 23154.8
 15 08 2015  05 45  -21.5678 18623.9 -13758.5 -36.4553 23154.8
 15 08 2015  05 46  -21.5680 18623.9 -13758.5 -36.4552 23154.8
 15 08 2015  05 47  -21.5684 18623.9 -13758.5 -36.4552 23154.8
 15 08 2015  05 48  -21.5687 18624.0 -13758.5 -36.4551 23154.8
 15 08 2015  05 49  -21.5692 18623.9 -13758.4 -36.4552 23154.8
 15 08 2015  05 50  -21.5697 18623.7 -13758.5 -36.4554 23154.7
 15 08 2015  05 51  -21.5700 18623.7 -13758.5 -36.4554 23154.6
 15 08 2015  05 52  -21.5703 18623.6 -13758.5 -36.4556 23154.6
 15 08 2015  05 53  -21.5703 18623.6 -13758.5 -36.4558 23154.6
 15 08 2015  05 54  -21.5704 18623.5 -13758.5 -36.4559 23154.5
 15 08 2015  05 55  -21.5705 18623.5 -13758.5 -36.4558 23154.5
 15 08 2015  05 56  -21.5706 18623.4 -13758.5 -36.4560 23154.4
 15 08 2015  05 57  -21.5704 18623.4 -13758.5 -36.4560 23154.4
 15 08 2015  05 58  -21.5703 18623.4 -13758.6 -36.4561 23154.4
 15 08 2015  05 59  -21.5700 18623.4 -13758.6 -36.4562 23154.5
 15 08 2015  06 00  -21.5698 18623.3 -13758.6 -36.4563 23154.5
 15 08 2015  06 01  -21.5697 18623.3 -13758.7 -36.4564 23154.4
 15 08 2015  06 02  -21.5696 18623.3 -13758.7 -36.4564 23154.4
 15 08 2015  06 03  -21.5695 18623.3 -13758.6 -36.4564 23154.4
 15 08 2015  06 04  -21.5691 18623.3 -13758.7 -36.4564 23154.5
 15 08 2015  06 05  -21.5687 18623.4 -13758.6 -36.4562 23154.5
 15 08 2015  06 06  -21.5685 18623.4 -13758.6 -36.4562 23154.5
 15 08 2015  06 07  -21.5683 18623.5 -13758.6 -36.4559 23154.5
 15 08 2015  06 08  -21.5679 18623.7 -13758.5 -36.4557 23154.7
 15 08 2015  06 09  -21.5673 18623.8 -13758.5 -36.4553 23154.8
 15 08 2015  06 10  -21.5668 18624.0 -13758.5 -36.4551 23154.9
 15 08 2015  06 11  -21.5664 18624.0 -13758.5 -36.4550 23154.9
 15 08 2015  06 12  -21.5661 18624.1 -13758.4 -36.4549 23154.9
 15 08 2015  06 13  -21.5659 18624.1 -13758.5 -36.4548 23155.0
 15 08 2015  06 14  -21.5659 18624.2 -13758.4 -36.4547 23155.0
 15 08 2015  06 15  -21.5657 18624.2 -13758.4 -36.4547 23155.1
 15 08 2015  06 16  -21.5657 18624.3 -13758.4 -36.4545 23155.1
 15 08 2015  06 17  -21.5659 18624.2 -13758.5 -36.4547 23155.1
 15 08 2015  06 18  -21.5661 18624.3 -13758.5 -36.4547 23155.1
 15 08 2015  06 19  -21.5662 18624.3 -13758.5 -36.4546 23155.1
 15 08 2015  06 20  -21.5664 18624.3 -13758.5 -36.4545 23155.1
 15 08 2015  06 21  -21.5663 18624.5 -13758.5 -36.4543 23155.2
 15 08 2015  06 22  -21.5659 18624.7 -13758.4 -36.4540 23155.4
 15 08 2015  06 23  -21.5659 18624.7 -13758.4 -36.4538 23155.4
 15 08 2015  06 24  -21.5659 18624.9 -13758.4 -36.4535 23155.6
 15 08 2015  06 25  -21.5659 18625.0 -13758.3 -36.4533 23155.6
 15 08 2015  06 26  -21.5658 18625.1 -13758.3 -36.4530 23155.7
 15 08 2015  06 27  -21.5661 18625.2 -13758.3 -36.4530 23155.7
 15 08 2015  06 28  -21.5664 18625.3 -13758.3 -36.4528 23155.8
 15 08 2015  06 29  -21.5666 18625.4 -13758.2 -36.4524 23155.9
 15 08 2015  06 30  -21.5670 18625.4 -13758.2 -36.4525 23155.8
 15 08 2015  06 31  -21.5672 18625.4 -13758.1 -36.4523 23155.8
 15 08 2015  06 32  -21.5672 18625.5 -13758.2 -36.4523 23155.9
 15 08 2015  06 33  -21.5674 18625.4 -13758.2 -36.4524 23155.8
 15 08 2015  06 34  -21.5677 18625.4 -13758.2 -36.4524 23155.9
 15 08 2015  06 35  -21.5683 18625.4 -13758.2 -36.4525 23155.8
 15 08 2015  06 36  -21.5688 18625.4 -13758.2 -36.4524 23155.8
 15 08 2015  06 37  -21.5692 18625.3 -13758.2 -36.4525 23155.7
 15 08 2015  06 38  -21.5693 18625.3 -13758.2 -36.4525 23155.7
 15 08 2015  06 39  -21.5692 18625.2 -13758.2 -36.4526 23155.7
 15 08 2015  06 40  -21.5688 18625.2 -13758.2 -36.4527 23155.7
 15 08 2015  06 41  -21.5685 18625.1 -13758.2 -36.4529 23155.7
 15 08 2015  06 42  -21.5683 18625.2 -13758.3 -36.4529 23155.7
 15 08 2015  06 43  -21.5682 18625.2 -13758.3 -36.4530 23155.7
 15 08 2015  06 44  -21.5683 18625.2 -13758.3 -36.4530 23155.8
 15 08 2015  06 45  -21.5678 18625.4 -13758.3 -36.4527 23155.9
 15 08 2015  06 46  -21.5675 18625.6 -13758.3 -36.4524 23156.1
 15 08 2015  06 47  -21.5674 18625.8 -13758.3 -36.4521 23156.2
 15 08 2015  06 48  -21.5675 18626.0 -13758.3 -36.4517 23156.3
 15 08 2015  06 49  -21.5678 18626.2 -13758.2 -36.4513 23156.5
 15 08 2015  06 50  -21.5679 18626.2 -13758.2 -36.4512 23156.5
 15 08 2015  06 51  -21.5681 18626.1 -13758.1 -36.4513 23156.4
 15 08 2015  06 52  -21.5683 18626.1 -13758.1 -36.4513 23156.4
 15 08 2015  06 53  -21.5683 18626.1 -13758.1 -36.4512 23156.4
 15 08 2015  06 54  -21.5682 18626.2 -13758.1 -36.4510 23156.4
 15 08 2015  06 55  -21.5678 18626.4 -13758.1 -36.4507 23156.5
 15 08 2015  06 56  -21.5675 18626.5 -13758.0 -36.4505 23156.6
 15 08 2015  06 57  -21.5672 18626.5 -13758.0 -36.4505 23156.6
 15 08 2015  06 58  -21.5668 18626.5 -13758.0 -36.4503 23156.6
 15 08 2015  06 59  -21.5663 18626.7 -13758.0 -36.4501 23156.7
 15 08 2015  07 00  -21.5660 18626.8 -13757.9 -36.4499 23156.8
 15 08 2015  07 01  -21.5656 18626.8 -13757.9 -36.4498 23156.9
 15 08 2015  07 02  -21.5653 18627.0 -13757.9 -36.4496 23157.0
 15 08 2015  07 03  -21.5650 18627.1 -13757.9 -36.4494 23157.0
 15 08 2015  07 04  -21.5648 18627.2 -13757.9 -36.4492 23157.1
 15 08 2015  07 05  -21.5645 18627.4 -13757.9 -36.4489 23157.2
 15 08 2015  07 06  -21.5643 18627.5 -13757.9 -36.4487 23157.3
 15 08 2015  07 07  -21.5642 18627.5 -13757.9 -36.4487 23157.3
 15 08 2015  07 08  -21.5640 18627.5 -13757.9 -36.4487 23157.3
 15 08 2015  07 09  -21.5638 18627.5 -13757.9 -36.4487 23157.3
 15 08 2015  07 10  -21.5639 18627.4 -13757.9 -36.4488 23157.3
 15 08 2015  07 11  -21.5638 18627.4 -13757.9 -36.4488 23157.3
 15 08 2015  07 12  -21.5637 18627.4 -13757.9 -36.4488 23157.3
 15 08 2015  07 13  -21.5635 18627.4 -13757.9 -36.4488 23157.3
 15 08 2015  07 14  -21.5633 18627.5 -13757.9 -36.4486 23157.4
 15 08 2015  07 15  -21.5631 18627.7 -13757.8 -36.4484 23157.5
 15 08 2015  07 16  -21.5628 18627.7 -13757.8 -36.4484 23157.5
 15 08 2015  07 17  -21.5621 18627.9 -13757.8 -36.4480 23157.6
 15 08 2015  07 18  -21.5618 18627.9 -13757.8 -36.4480 23157.6
 15 08 2015  07 19  -21.5615 18628.0 -13757.7 -36.4477 23157.6
 15 08 2015  07 20  -21.5612 18628.2 -13757.7 -36.4475 23157.8
 15 08 2015  07 21  -21.5613 18628.2 -13757.7 -36.4473 23157.8
 15 08 2015  07 22  -21.5610 18628.4 -13757.7 -36.4471 23158.0
 15 08 2015  07 23  -21.5607 18628.5 -13757.7 -36.4470 23158.1
 15 08 2015  07 24  -21.5604 18628.5 -13757.8 -36.4470 23158.1
 15 08 2015  07 25  -21.5602 18628.4 -13757.8 -36.4471 23158.0
 15 08 2015  07 26  -21.5600 18628.6 -13757.7 -36.4469 23158.1
 15 08 2015  07 27  -21.5595 18628.7 -13757.7 -36.4466 23158.2
 15 08 2015  07 28  -21.5585 18628.9 -13757.6 -36.4462 23158.4
 15 08 2015  07 29  -21.5577 18628.9 -13757.6 -36.4462 23158.3
 15 08 2015  07 30  -21.5573 18628.8 -13757.7 -36.4465 23158.3
 15 08 2015  07 31  -21.5564 18628.9 -13757.7 -36.4464 23158.4
 15 08 2015  07 32  -21.5553 18629.0 -13757.8 -36.4462 23158.5
 15 08 2015  07 33  -21.5547 18629.0 -13757.8 -36.4464 23158.5
 15 08 2015  07 34  -21.5542 18629.0 -13757.8 -36.4464 23158.5
 15 08 2015  07 35  -21.5539 18629.0 -13757.8 -36.4463 23158.6
 15 08 2015  07 36  -21.5538 18628.9 -13757.8 -36.4465 23158.5
 15 08 2015  07 37  -21.5538 18628.8 -13757.9 -36.4469 23158.4
 15 08 2015  07 38  -21.5539 18628.7 -13758.0 -36.4471 23158.4
 15 08 2015  07 39  -21.5541 18628.6 -13758.0 -36.4474 23158.3
 15 08 2015  07 40  -21.5540 18628.4 -13758.1 -36.4477 23158.2
 15 08 2015  07 41  -21.5539 18628.3 -13758.1 -36.4481 23158.1
 15 08 2015  07 42  -21.5537 18628.3 -13758.1 -36.4481 23158.1
 15 08 2015  07 43  -21.5533 18628.3 -13758.2 -36.4481 23158.2
 15 08 2015  07 44  -21.5532 18628.4 -13758.1 -36.4479 23158.2
 15 08 2015  07 45  -21.5530 18628.5 -13758.1 -36.4477 23158.2
 15 08 2015  07 46  -21.5527 18628.6 -13758.1 -36.4475 23158.3
 15 08 2015  07 47  -21.5525 18628.5 -13758.1 -36.4475 23158.3
 15 08 2015  07 48  -21.5523 18628.5 -13758.0 -36.4475 23158.3
 15 08 2015  07 49  -21.5524 18628.6 -13758.1 -36.4475 23158.3
 15 08 2015  07 50  -21.5527 18628.7 -13758.0 -36.4473 23158.4
 15 08 2015  07 51  -21.5528 18628.8 -13758.0 -36.4472 23158.5
 15 08 2015  07 52  -21.5528 18628.9 -13758.0 -36.4469 23158.6
 15 08 2015  07 53  -21.5528 18629.2 -13757.9 -36.4463 23158.8
 15 08 2015  07 54  -21.5528 18629.5 -13757.9 -36.4458 23158.9
 15 08 2015  07 55  -21.5524 18629.7 -13757.8 -36.4453 23159.1
 15 08 2015  07 56  -21.5520 18629.9 -13757.7 -36.4449 23159.2
 15 08 2015  07 57  -21.5513 18630.1 -13757.7 -36.4445 23159.3
 15 08 2015  07 58  -21.5509 18630.3 -13757.7 -36.4442 23159.4
 15 08 2015  07 59  -21.5503 18630.4 -13757.6 -36.4439 23159.6
 15 08 2015  08 00  -21.5499 18630.6 -13757.6 -36.4437 23159.7
 15 08 2015  08 01  -21.5494 18630.6 -13757.6 -36.4437 23159.7
 15 08 2015  08 02  -21.5492 18630.6 -13757.6 -36.4437 23159.7
 15 08 2015  08 03  -21.5490 18630.6 -13757.7 -36.4437 23159.7
 15 08 2015  08 04  -21.5487 18630.7 -13757.7 -36.4436 23159.8
 15 08 2015  08 05  -21.5482 18630.7 -13757.7 -36.4436 23159.9
 15 08 2015  08 06  -21.5479 18630.9 -13757.7 -36.4432 23160.0
 15 08 2015  08 07  -21.5475 18631.0 -13757.7 -36.4432 23160.0
 15 08 2015  08 08  -21.5473 18631.0 -13757.7 -36.4432 23160.0
 15 08 2015  08 09  -21.5470 18630.8 -13757.7 -36.4435 23159.9
 15 08 2015  08 10  -21.5469 18630.7 -13757.7 -36.4435 23159.8
 15 08 2015  08 11  -21.5464 18630.7 -13757.7 -36.4436 23159.9
 15 08 2015  08 12  -21.5459 18630.8 -13757.7 -36.4435 23159.9
 15 08 2015  08 13  -21.5454 18630.9 -13757.7 -36.4434 23160.0
 15 08 2015  08 14  -21.5449 18631.0 -13757.8 -36.4433 23160.1
 15 08 2015  08 15  -21.5447 18631.2 -13757.7 -36.4430 23160.2
 15 08 2015  08 16  -21.5444 18631.7 -13757.7 -36.4423 23160.6
 15 08 2015  08 17  -21.5439 18632.0 -13757.6 -36.4416 23160.9
 15 08 2015  08 18  -21.5438 18632.2 -13757.6 -36.4413 23160.9
 15 08 2015  08 19  -21.5440 18632.1 -13757.6 -36.4414 23160.9
 15 08 2015  08 20  -21.5440 18631.9 -13757.6 -36.4416 23160.7
 15 08 2015  08 21  -21.5440 18631.9 -13757.6 -36.4416 23160.7
 15 08 2015  08 22  -21.5440 18631.9 -13757.6 -36.4416 23160.7
 15 08 2015  08 23  -21.5435 18632.2 -13757.6 -36.4412 23160.9
 15 08 2015  08 24  -21.5427 18632.4 -13757.5 -36.4408 23161.1
 15 08 2015  08 25  -21.5420 18632.6 -13757.5 -36.4405 23161.3
 15 08 2015  08 26  -21.5416 18632.8 -13757.5 -36.4402 23161.4
 15 08 2015  08 27  -21.5414 18632.8 -13757.5 -36.4401 23161.4
 15 08 2015  08 28  -21.5413 18633.0 -13757.5 -36.4398 23161.5
 15 08 2015  08 29  -21.5422 18638.1 -13757.1 -36.4315 23165.4
 15 08 2015  08 30  -21.5293 18647.7 -13755.7 -36.4147 23172.3
 15 08 2015  08 31  -21.5139 18652.6 -13754.6 -36.4052 23175.6
 15 08 2015  08 32  -21.5067 18656.0 -13753.7 -36.3985 23177.8
 15 08 2015  08 33  -21.5019 18657.6 -13752.9 -36.3948 23178.6
 15 08 2015  08 34  -21.5040 18658.1 -13752.6 -36.3932 23178.8
 15 08 2015  08 35  -21.5076 18658.8 -13752.2 -36.3915 23179.1
 15 08 2015  08 36  -21.5106 18659.1 -13751.9 -36.3905 23179.2
 15 08 2015  08 37  -21.5138 18658.4 -13751.8 -36.3912 23178.6
 15 08 2015  08 38  -21.5172 18658.8 -13751.7 -36.3904 23178.8
 15 08 2015  08 39  -21.5197 18659.3 -13751.4 -36.3891 23179.1
 15 08 2015  08 40  -21.5210 18659.2 -13751.3 -36.3890 23178.9
 15 08 2015  08 41  -21.5208 18659.5 -13751.1 -36.3882 23179.1
 15 08 2015  08 42  -21.5216 18660.2 -13751.0 -36.3870 23179.6
 15 08 2015  08 43  -21.5213 18660.8 -13750.8 -36.3857 23179.9
 15 08 2015  08 44  -21.5210 18661.1 -13750.6 -36.3849 23180.1
 15 08 2015  08 45  -21.5220 18661.1 -13750.5 -36.3847 23180.1
 15 08 2015  08 46  -21.5219 18660.8 -13750.5 -36.3852 23179.8
 15 08 2015  08 47  -21.5218 18660.3 -13750.6 -36.3860 23179.4
 15 08 2015  08 48  -21.5228 18659.9 -13750.7 -36.3870 23179.2
 15 08 2015  08 49  -21.5234 18659.7 -13750.8 -36.3874 23179.0
 15 08 2015  08 50  -21.5256 18658.9 -13750.9 -36.3886 23178.5
 15 08 2015  08 51  -21.5273 18658.6 -13751.0 -36.3893 23178.3
 15 08 2015  08 52  -21.5284 18658.7 -13751.0 -36.3893 23178.3
 15 08 2015  08 53  -21.5296 18658.1 -13751.1 -36.3903 23177.9
 15 08 2015  08 54  -21.5313 18658.0 -13751.1 -36.3905 23177.9
 15 08 2015  08 55  -21.5320 18657.9 -13751.2 -36.3907 23177.8
 15 08 2015  08 56  -21.5325 18657.6 -13751.2 -36.3912 23177.6
 15 08 2015  08 57  -21.5323 18657.3 -13751.2 -36.3917 23177.4
 15 08 2015  08 58  -21.5333 18656.9 -13751.3 -36.3924 23177.1
 15 08 2015  08 59  -21.5341 18657.2 -13751.3 -36.3919 23177.3
 15 08 2015  09 00  -21.5325 18657.4 -13751.2 -36.3914 23177.4
 15 08 2015  09 01  -21.5325 18657.0 -13751.1 -36.3920 23177.1
 15 08 2015  09 02  -21.5325 18656.8 -13751.2 -36.3923 23177.0
 15 08 2015  09 03  -21.5313 18656.6 -13751.2 -36.3927 23176.8
 15 08 2015  09 04  -21.5317 18656.2 -13751.3 -36.3935 23176.6
 15 08 2015  09 05  -21.5315 18656.2 -13751.3 -36.3935 23176.6
 15 08 2015  09 06  -21.5307 18655.2 -13751.4 -36.3951 23175.8
 15 08 2015  09 07  -21.5306 18653.0 -13751.7 -36.3989 23174.2
 15 08 2015  09 08  -21.5327 18653.3 -13751.8 -36.3989 23174.5
 15 08 2015  09 09  -21.5327 18652.7 -13751.9 -36.3997 23174.1
 15 08 2015  09 10  -21.5338 18651.6 -13752.0 -36.4015 23173.2
 15 08 2015  09 11  -21.5323 18652.9 -13751.9 -36.3994 23174.2
 15 08 2015  09 12  -21.5296 18653.5 -13751.7 -36.3981 23174.6
 15 08 2015  09 13  -21.5283 18653.2 -13751.7 -36.3986 23174.3
 15 08 2015  09 14  -21.5272 18653.7 -13751.5 -36.3976 23174.7
 15 08 2015  09 15  -21.5261 18653.9 -13751.4 -36.3971 23174.8
 15 08 2015  09 16  -21.5263 18652.7 -13751.5 -36.3990 23173.8
 15 08 2015  09 17  -21.5257 18653.3 -13751.4 -36.3979 23174.3
 15 08 2015  09 18  -21.5264 18653.6 -13751.3 -36.3974 23174.5
 15 08 2015  09 19  -21.5276 18652.7 -13751.4 -36.3988 23173.8
 15 08 2015  09 20  -21.5290 18652.5 -13751.4 -36.3991 23173.7
 15 08 2015  09 21  -21.5291 18652.8 -13751.3 -36.3985 23173.9
 15 08 2015  09 22  -21.5271 18651.6 -13751.5 -36.4006 23172.9
 15 08 2015  09 23  -21.5247 18652.8 -13751.7 -36.3992 23174.0
 15 08 2015  09 24  -21.5214 18653.9 -13751.6 -36.3975 23174.8
 15 08 2015  09 25  -21.5206 18654.1 -13751.5 -36.3970 23175.0
 15 08 2015  09 26  -21.5190 18654.9 -13751.5 -36.3958 23175.6
 15 08 2015  09 27  -21.5148 18655.5 -13751.4 -36.3946 23176.0
 15 08 2015  09 28  -21.5113 18655.9 -13751.4 -36.3942 23176.3
 15 08 2015  09 29  -21.5094 18655.4 -13751.5 -36.3950 23176.0
 15 08 2015  09 30  -21.5094 18655.4 -13751.6 -36.3951 23176.1
 15 08 2015  09 31  -21.5095 18658.0 -13751.3 -36.3908 23178.0
 15 08 2015  09 32  -21.5101 18657.4 -13751.1 -36.3912 23177.4
 15 08 2015  09 33  -21.5097 18657.9 -13751.0 -36.3904 23177.7
 15 08 2015  09 34  -21.5096 18658.8 -13750.7 -36.3885 23178.3
 15 08 2015  09 35  -21.5063 18657.4 -13750.8 -36.3907 23177.3
 15 08 2015  09 36  -21.5013 18656.8 -13751.1 -36.3921 23176.9
 15 08 2015  09 37  -21.4984 18657.3 -13751.3 -36.3917 23177.4
 15 08 2015  09 38  -21.4958 18657.9 -13751.4 -36.3913 23178.0
 15 08 2015  09 39  -21.4950 18659.2 -13751.3 -36.3892 23178.9
 15 08 2015  09 40  -21.4939 18659.8 -13751.2 -36.3881 23179.4
 15 08 2015  09 41  -21.4939 18660.1 -13751.2 -36.3877 23179.6
 15 08 2015  09 42  -21.4937 18660.3 -13751.3 -36.3874 23179.8
 15 08 2015  09 43  -21.4949 18660.4 -13751.2 -36.3872 23179.9
 15 08 2015  09 44  -21.4962 18660.2 -13751.2 -36.3875 23179.7
 15 08 2015  09 45  -21.4977 18659.9 -13751.2 -36.3879 23179.5
 15 08 2015  09 46  -21.4953 18659.3 -13751.3 -36.3889 23179.0
 15 08 2015  09 47  -21.4920 18659.4 -13751.4 -36.3889 23179.2
 15 08 2015  09 48  -21.4889 18658.7 -13751.6 -36.3904 23178.7
 15 08 2015  09 49  -21.4878 18658.5 -13751.9 -36.3911 23178.8
 15 08 2015  09 50  -21.4860 18659.6 -13751.9 -36.3896 23179.6
 15 08 2015  09 51  -21.4845 18660.1 -13751.9 -36.3890 23180.0
 15 08 2015  09 52  -21.4839 18660.7 -13751.9 -36.3880 23180.5
 15 08 2015  09 53  -21.4838 18660.8 -13752.0 -36.3881 23180.7
 15 08 2015  09 54  -21.4856 18660.5 -13752.1 -36.3886 23180.5
 15 08 2015  09 55  -21.4870 18660.2 -13752.2 -36.3895 23180.3
 15 08 2015  09 56  -21.4852 18661.4 -13752.3 -36.3879 23181.3
 15 08 2015  09 57  -21.4846 18661.2 -13752.4 -36.3883 23181.2
 15 08 2015  09 58  -21.4827 18661.3 -13752.4 -36.3882 23181.2
 15 08 2015  09 59  -21.4809 18661.4 -13752.5 -36.3882 23181.4
 15 08 2015  10 00  -21.4805 18660.9 -13752.5 -36.3891 23181.0
 15 08 2015  10 01  -21.4806 18660.3 -13752.8 -36.3904 23180.7
 15 08 2015  10 02  -21.4789 18660.4 -13753.0 -36.3907 23180.9
 15 08 2015  10 03  -21.4788 18659.8 -13753.1 -36.3918 23180.5
 15 08 2015  10 04  -21.4790 18659.4 -13753.3 -36.3928 23180.3
 15 08 2015  10 05  -21.4826 18658.8 -13753.5 -36.3941 23179.9
 15 08 2015  10 06  -21.4852 18658.0 -13753.7 -36.3957 23179.4
 15 08 2015  10 07  -21.4870 18657.7 -13753.8 -36.3962 23179.3
 15 08 2015  10 08  -21.4854 18658.0 -13753.9 -36.3961 23179.5
 15 08 2015  10 09  -21.4862 18656.4 -13754.1 -36.3987 23178.4
 15 08 2015  10 10  -21.4858 18656.0 -13754.4 -36.3999 23178.3
 15 08 2015  10 11  -21.4893 18656.3 -13754.4 -36.3994 23178.4
 15 08 2015  10 12  -21.4900 18656.2 -13754.3 -36.3995 23178.3
 15 08 2015  10 13  -21.4925 18656.5 -13754.2 -36.3988 23178.5
 15 08 2015  10 14  -21.4948 18656.4 -13754.1 -36.3987 23178.4
 15 08 2015  10 15  -21.4945 18656.7 -13754.2 -36.3984 23178.7
 15 08 2015  10 16  -21.4939 18657.6 -13754.1 -36.3970 23179.3
 15 08 2015  10 17  -21.4967 18657.1 -13754.0 -36.3975 23178.9
 15 08 2015  10 18  -21.4979 18658.1 -13753.9 -36.3958 23179.6
 15 08 2015  10 19  -21.4969 18658.7 -13753.7 -36.3945 23180.0
 15 08 2015  10 20  -21.4969 18657.8 -13753.7 -36.3960 23179.3
 15 08 2015  10 21  -21.4966 18657.5 -13753.9 -36.3968 23179.1
 15 08 2015  10 22  -21.4934 18657.8 -13754.0 -36.3965 23179.4
 15 08 2015  10 23  -21.4935 18657.5 -13754.1 -36.3971 23179.3
 15 08 2015  10 24  -21.4952 18657.2 -13754.1 -36.3977 23179.0
 15 08 2015  10 25  -21.4964 18657.0 -13754.2 -36.3980 23178.9
 15 08 2015  10 26  -21.4973 18657.6 -13754.2 -36.3972 23179.4
 15 08 2015  10 27  -21.4959 18657.8 -13754.2 -36.3969 23179.5
 15 08 2015  10 28  -21.4960 18657.1 -13754.2 -36.3979 23179.0
 15 08 2015  10 29  -21.4980 18655.7 -13754.4 -36.4004 23178.0
 15 08 2015  10 30  -21.5009 18654.1 -13754.7 -36.4032 23176.9
 15 08 2015  10 31  -21.5034 18654.1 -13754.9 -36.4037 23177.0
 15 08 2015  10 32  -21.5026 18654.9 -13754.9 -36.4027 23177.6
 15 08 2015  10 33  -21.5045 18655.7 -13754.7 -36.4010 23178.2
 15 08 2015  10 34  -21.5082 18655.6 -13754.5 -36.4007 23177.9
 15 08 2015  10 35  -21.5104 18655.7 -13754.3 -36.4003 23177.9
 15 08 2015  10 36  -21.5113 18655.7 -13754.2 -36.3999 23177.9
 15 08 2015  10 37  -21.5121 18654.4 -13754.2 -36.4018 23176.8
 15 08 2015  10 38  -21.5129 18654.8 -13754.2 -36.4013 23177.2
 15 08 2015  10 39  -21.5130 18655.0 -13753.9 -36.4005 23177.1
 15 08 2015  10 40  -21.5179 18652.3 -13753.8 -36.4042 23174.9
 15 08 2015  10 41  -21.5199 18652.2 -13753.9 -36.4045 23174.9
 15 08 2015  10 42  -21.5177 18653.1 -13754.0 -36.4034 23175.6
 15 08 2015  10 43  -21.5193 18652.8 -13753.8 -36.4036 23175.3
 15 08 2015  10 44  -21.5212 18652.2 -13753.8 -36.4042 23174.8
 15 08 2015  10 45  -21.5219 18651.2 -13753.9 -36.4060 23174.0
 15 08 2015  10 46  -21.5249 18650.2 -13754.0 -36.4077 23173.3
 15 08 2015  10 47  -21.5292 18649.3 -13753.9 -36.4088 23172.5
 15 08 2015  10 48  -21.5300 18647.6 -13754.1 -36.4117 23171.2
 15 08 2015  10 49  -21.5296 18646.5 -13754.4 -36.4137 23170.6
 15 08 2015  10 50  -21.5322 18644.9 -13754.6 -36.4167 23169.4
 15 08 2015  10 51  -21.5330 18644.2 -13754.9 -36.4184 23169.0
 15 08 2015  10 52  -21.5350 18644.2 -13755.0 -36.4185 23169.1
 15 08 2015  10 53  -21.5378 18644.0 -13754.8 -36.4183 23168.9
 15 08 2015  10 54  -21.5403 18642.6 -13754.8 -36.4204 23167.7
 15 08 2015  10 55  -21.5384 18643.0 -13755.1 -36.4205 23168.1
 15 08 2015  10 56  -21.5373 18643.1 -13755.1 -36.4203 23168.3
 15 08 2015  10 57  -21.5383 18641.5 -13755.2 -36.4228 23167.0
 15 08 2015  10 58  -21.5421 18639.7 -13755.4 -36.4260 23165.7
 15 08 2015  10 59  -21.5469 18638.6 -13755.7 -36.4280 23164.9
 15 08 2015  11 00  -21.5487 18638.2 -13755.9 -36.4290 23164.7
 15 08 2015  11 01  -21.5450 18639.3 -13755.9 -36.4276 23165.7
 15 08 2015  11 02  -21.5422 18639.6 -13755.9 -36.4269 23165.9
 15 08 2015  11 03  -21.5410 18638.5 -13756.0 -36.4289 23165.0
 15 08 2015  11 04  -21.5374 18637.8 -13756.3 -36.4305 23164.7
 15 08 2015  11 05  -21.5349 18637.3 -13756.4 -36.4314 23164.4
 15 08 2015  11 06  -21.5330 18636.0 -13756.6 -36.4338 23163.4
 15 08 2015  11 07  -21.5338 18633.2 -13757.0 -36.4386 23161.4
 15 08 2015  11 08  -21.5377 18630.2 -13757.6 -36.4443 23159.4
 15 08 2015  11 09  -21.5412 18628.9 -13758.2 -36.4473 23158.7
 15 08 2015  11 10  -21.5457 18627.5 -13758.5 -36.4499 23157.7
 15 08 2015  11 11  -21.5434 18626.4 -13758.9 -36.4523 23157.1
 15 08 2015  11 12  -21.5433 18625.4 -13759.2 -36.4543 23156.5
 15 08 2015  11 13  -21.5485 18624.5 -13759.2 -36.4558 23155.7
 15 08 2015  11 14  -21.5522 18624.4 -13759.2 -36.4558 23155.7
 15 08 2015  11 15  -21.5451 18625.1 -13759.2 -36.4549 23156.2
 15 08 2015  11 16  -21.5391 18624.2 -13759.3 -36.4564 23155.6
 15 08 2015  11 17  -21.5412 18622.1 -13759.6 -36.4602 23154.0
 15 08 2015  11 18  -21.5448 18621.4 -13759.8 -36.4615 23153.6
 15 08 2015  11 19  -21.5450 18621.3 -13759.9 -36.4618 23153.5
 15 08 2015  11 20  -21.5446 18620.6 -13759.9 -36.4628 23153.0
 15 08 2015  11 21  -21.5451 18619.3 -13759.9 -36.4649 23152.0
 15 08 2015  11 22  -21.5505 18617.7 -13760.1 -36.4676 23150.7
 15 08 2015  11 23  -21.5561 18616.1 -13760.2 -36.4701 23149.5
 15 08 2015  11 24  -21.5582 18615.4 -13760.2 -36.4711 23149.0
 15 08 2015  11 25  -21.5571 18615.1 -13760.3 -36.4718 23148.8
 15 08 2015  11 26  -21.5553 18616.0 -13760.3 -36.4706 23149.5
 15 08 2015  11 27  -21.5541 18617.1 -13760.1 -36.4684 23150.3
 15 08 2015  11 28  -21.5608 18616.8 -13759.9 -36.4683 23149.9
 15 08 2015  11 29  -21.5638 18616.9 -13759.8 -36.4682 23149.9
 15 08 2015  11 30  -21.5674 18618.5 -13759.5 -36.4651 23151.1
 15 08 2015  11 31  -21.5698 18617.3 -13759.3 -36.4666 23150.0
 15 08 2015  11 32  -21.5655 18617.7 -13759.7 -36.4667 23150.6
 15 08 2015  11 33  -21.5566 18620.8 -13759.8 -36.4625 23153.1
 15 08 2015  11 34  -21.5444 18623.7 -13760.0 -36.4586 23155.6
 15 08 2015  11 35  -21.5383 18627.3 -13759.8 -36.4528 23158.3
 15 08 2015  11 36  -21.5331 18628.0 -13759.7 -36.4515 23158.8
 15 08 2015  11 37  -21.5285 18628.6 -13759.9 -36.4510 23159.4
 15 08 2015  11 38  -21.5243 18629.6 -13760.1 -36.4499 23160.4
 15 08 2015  11 39  -21.5155 18629.5 -13760.4 -36.4508 23160.5
 15 08 2015  11 40  -21.5084 18629.6 -13761.1 -36.4520 23160.9
 15 08 2015  11 41  -21.5072 18626.9 -13761.7 -36.4571 23159.1
 15 08 2015  11 42  -21.5088 18624.1 -13762.5 -36.4630 23157.4
 15 08 2015  11 43  -21.5071 18623.0 -13763.4 -36.4663 23157.0
 15 08 2015  11 44  -21.5051 18622.1 -13764.0 -36.4688 23156.6
 15 08 2015  11 45  -21.5026 18621.1 -13764.6 -36.4716 23156.2
 15 08 2015  11 46  -21.5021 18620.7 -13765.1 -36.4730 23156.1
 15 08 2015  11 47  -21.4993 18619.8 -13765.5 -36.4752 23155.7
 15 08 2015  11 48  -21.4910 18618.6 -13766.2 -36.4783 23155.1
 15 08 2015  11 49  -21.4824 18618.1 -13767.0 -36.4807 23155.2
 15 08 2015  11 50  -21.4774 18618.2 -13767.6 -36.4817 23155.6
 15 08 2015  11 51  -21.4730 18616.4 -13768.3 -36.4857 23154.6
 15 08 2015  11 52  -21.4698 18616.9 -13768.8 -36.4861 23155.4
 15 08 2015  11 53  -21.4662 18616.6 -13769.1 -36.4871 23155.3
 15 08 2015  11 54  -21.4617 18616.4 -13769.5 -36.4880 23155.3
 15 08 2015  11 55  -21.4568 18615.9 -13769.9 -36.4897 23155.1
 15 08 2015  11 56  -21.4547 18614.8 -13770.3 -36.4921 23154.5
 15 08 2015  11 57  -21.4524 18615.1 -13770.6 -36.4922 23155.0
 15 08 2015  11 58  -21.4513 18616.1 -13770.7 -36.4910 23155.8
 15 08 2015  11 59  -21.4553 18616.3 -13770.5 -36.4903 23155.8
 15 08 2015  12 00  -21.4553 18615.1 -13770.4 -36.4919 23154.8
 15 08 2015  12 01  -21.4550 18614.2 -13770.7 -36.4937 23154.3
 15 08 2015  12 02  -21.4589 18613.4 -13770.7 -36.4950 23153.6
 15 08 2015  12 03  -21.4640 18612.8 -13770.6 -36.4955 23153.1
 15 08 2015  12 04  -21.4678 18612.0 -13770.5 -36.4966 23152.3
 15 08 2015  12 05  -21.4670 18612.8 -13770.4 -36.4952 23153.0
 15 08 2015  12 06  -21.4714 18613.5 -13769.9 -36.4933 23153.3
 15 08 2015  12 07  -21.4732 18613.7 -13769.6 -36.4924 23153.2
 15 08 2015  12 08  -21.4798 18609.1 -13769.4 -36.4987 23149.5
 15 08 2015  12 09  -21.4825 18603.5 -13770.3 -36.5087 23145.4
 15 08 2015  12 10  -21.4928 18599.9 -13770.9 -36.5153 23142.9
 15 08 2015  12 11  -21.5047 18597.7 -13771.2 -36.5191 23141.3
 15 08 2015  12 12  -21.5135 18598.0 -13771.1 -36.5183 23141.5
 15 08 2015  12 13  -21.5178 18599.5 -13770.6 -36.5152 23142.3
 15 08 2015  12 14  -21.5221 18599.8 -13770.0 -36.5136 23142.3
 15 08 2015  12 15  -21.5250 18599.2 -13769.7 -36.5139 23141.6
 15 08 2015  12 16  -21.5292 18597.4 -13769.6 -36.5163 23140.1
 15 08 2015  12 17  -21.5388 18594.1 -13769.7 -36.5214 23137.5
 15 08 2015  12 18  -21.5484 18590.6 -13769.9 -36.5269 23134.8
 15 08 2015  12 19  -21.5570 18588.6 -13770.0 -36.5301 23133.3
 15 08 2015  12 20  -21.5644 18589.2 -13769.8 -36.5288 23133.7
 15 08 2015  12 21  -21.5690 18589.1 -13769.4 -36.5282 23133.4
 15 08 2015  12 22  -21.5715 18589.7 -13769.1 -36.5267 23133.7
 15 08 2015  12 23  -21.5730 18590.7 -13768.8 -36.5245 23134.3
 15 08 2015  12 24  -21.5712 18592.9 -13768.4 -36.5207 23135.8
 15 08 2015  12 25  -21.5722 18595.0 -13767.9 -36.5166 23137.2
 15 08 2015  12 26  -21.5746 18595.7 -13767.4 -36.5145 23137.4
 15 08 2015  12 27  -21.5823 18593.4 -13767.1 -36.5173 23135.4
 15 08 2015  12 28  -21.5893 18591.7 -13767.1 -36.5199 23134.0
 15 08 2015  12 29  -21.5919 18590.2 -13767.3 -36.5225 23133.0
 15 08 2015  12 30  -21.5937 18591.7 -13767.2 -36.5200 23134.2
 15 08 2015  12 31  -21.5975 18591.9 -13766.8 -36.5189 23134.1
 15 08 2015  12 32  -21.5971 18593.2 -13766.6 -36.5165 23134.9
 15 08 2015  12 33  -21.5970 18594.5 -13766.2 -36.5139 23135.8
 15 08 2015  12 34  -21.5954 18595.0 -13766.0 -36.5127 23136.1
 15 08 2015  12 35  -21.5988 18594.2 -13765.8 -36.5136 23135.3
 15 08 2015  12 36  -21.5988 18593.1 -13765.9 -36.5154 23134.5
 15 08 2015  12 37  -21.6000 18591.9 -13766.1 -36.5176 23133.6
 15 08 2015  12 38  -21.5993 18592.0 -13766.4 -36.5180 23133.9
 15 08 2015  12 39  -21.5994 18592.6 -13766.6 -36.5174 23134.5
 15 08 2015  12 40  -21.6029 18592.2 -13766.4 -36.5177 23134.0
 15 08 2015  12 41  -21.6047 18591.1 -13766.5 -36.5194 23133.3
 15 08 2015  12 42  -21.6048 18591.4 -13766.7 -36.5193 23133.6
 15 08 2015  12 43  -21.6028 18593.1 -13766.7 -36.5168 23134.9
 15 08 2015  12 44  -21.6013 18595.4 -13766.4 -36.5129 23136.6
 15 08 2015  12 45  -21.6003 18596.8 -13766.2 -36.5105 23137.6
 15 08 2015  12 46  -21.5970 18597.7 -13766.1 -36.5090 23138.3
 15 08 2015  12 47  -21.5930 18598.4 -13766.2 -36.5080 23138.9
 15 08 2015  12 48  -21.5925 18597.6 -13766.3 -36.5096 23138.3
 15 08 2015  12 49  -21.5940 18596.2 -13766.6 -36.5122 23137.4
 15 08 2015  12 50  -21.5965 18594.2 -13767.0 -36.5159 23136.0
 15 08 2015  12 51  -21.5982 18592.6 -13767.5 -36.5192 23135.0
 15 08 2015  12 52  -21.5992 18591.9 -13768.0 -36.5211 23134.7
 15 08 2015  12 53  -21.5978 18592.9 -13768.2 -36.5202 23135.7
 15 08 2015  12 54  -21.5949 18593.5 -13768.3 -36.5194 23136.2
 15 08 2015  12 55  -21.5929 18593.3 -13768.5 -36.5201 23136.2
 15 08 2015  12 56  -21.5901 18593.9 -13768.7 -36.5198 23136.8
 15 08 2015  12 57  -21.5883 18594.2 -13768.9 -36.5197 23137.1
 15 08 2015  12 58  -21.5848 18594.7 -13769.1 -36.5193 23137.6
 15 08 2015  12 59  -21.5822 18594.6 -13769.2 -36.5196 23137.7
 15 08 2015  13 00  -21.5811 18594.3 -13769.4 -36.5205 23137.5
 15 08 2015  13 01  -21.5795 18594.0 -13769.6 -36.5213 23137.4
 15 08 2015  13 02  -21.5767 18594.0 -13769.7 -36.5216 23137.5
 15 08 2015  13 03  -21.5739 18593.7 -13770.0 -36.5225 23137.4
 15 08 2015  13 04  -21.5732 18593.6 -13770.1 -36.5229 23137.4
 15 08 2015  13 05  -21.5748 18593.2 -13770.1 -36.5236 23137.0
 15 08 2015  13 06  -21.5758 18592.7 -13770.1 -36.5242 23136.7
 15 08 2015  13 07  -21.5767 18592.4 -13770.0 -36.5245 23136.4
 15 08 2015  13 08  -21.5785 18592.4 -13769.9 -36.5244 23136.3
 15 08 2015  13 09  -21.5806 18592.5 -13769.7 -36.5239 23136.3
 15 08 2015  13 10  -21.5800 18592.9 -13769.6 -36.5231 23136.5
 15 08 2015  13 11  -21.5794 18593.6 -13769.4 -36.5216 23137.0
 15 08 2015  13 12  -21.5788 18595.0 -13769.2 -36.5191 23137.9
 15 08 2015  13 13  -21.5792 18595.9 -13768.8 -36.5171 23138.4
 15 08 2015  13 14  -21.5811 18595.7 -13768.5 -36.5166 23138.1
 15 08 2015  13 15  -21.5844 18595.5 -13768.2 -36.5163 23137.7
 15 08 2015  13 16  -21.5871 18594.7 -13767.9 -36.5170 23137.0
 15 08 2015  13 17  -21.5909 18594.1 -13767.8 -36.5175 23136.4
 15 08 2015  13 18  -21.5954 18593.8 -13767.6 -36.5177 23136.0
 15 08 2015  13 19  -21.5995 18593.9 -13767.2 -36.5168 23135.9
 15 08 2015  13 20  -21.6006 18594.3 -13766.9 -36.5155 23136.0
 15 08 2015  13 21  -21.5994 18594.7 -13766.6 -36.5143 23136.2
 15 08 2015  13 22  -21.5977 18595.5 -13766.3 -36.5126 23136.7
 15 08 2015  13 23  -21.5962 18596.5 -13765.9 -36.5104 23137.2
 15 08 2015  13 24  -21.5948 18597.2 -13765.6 -36.5087 23137.6
 15 08 2015  13 25  -21.5931 18598.0 -13765.3 -36.5069 23138.0
 15 08 2015  13 26  -21.5915 18598.6 -13765.0 -36.5053 23138.3
 15 08 2015  13 27  -21.5874 18598.8 -13764.8 -36.5047 23138.4
 15 08 2015  13 28  -21.5847 18598.8 -13764.7 -36.5045 23138.4
 15 08 2015  13 29  -21.5819 18600.0 -13764.6 -36.5024 23139.2
 15 08 2015  13 30  -21.5824 18600.1 -13764.2 -36.5017 23139.1
 15 08 2015  13 31  -21.5846 18598.1 -13764.1 -36.5045 23137.4
 15 08 2015  13 32  -21.5883 18597.5 -13764.1 -36.5054 23136.9
 15 08 2015  13 33  -21.5898 18597.4 -13764.0 -36.5053 23136.8
 15 08 2015  13 34  -21.5897 18597.6 -13763.9 -36.5048 23136.9
 15 08 2015  13 35  -21.5898 18597.2 -13763.9 -36.5054 23136.5
 15 08 2015  13 36  -21.5895 18597.1 -13763.9 -36.5054 23136.5
 15 08 2015  13 37  -21.5924 18596.0 -13763.8 -36.5068 23135.6
 15 08 2015  13 38  -21.5941 18594.9 -13763.8 -36.5085 23134.7
 15 08 2015  13 39  -21.5944 18593.9 -13764.0 -36.5103 23134.0
 15 08 2015  13 40  -21.5995 18592.2 -13764.1 -36.5131 23132.6
 15 08 2015  13 41  -21.6025 18591.6 -13764.2 -36.5142 23132.2
 15 08 2015  13 42  -21.6038 18591.2 -13764.3 -36.5151 23132.0
 15 08 2015  13 43  -21.6020 18591.1 -13764.5 -36.5156 23132.0
 15 08 2015  13 44  -21.6036 18589.6 -13764.7 -36.5181 23131.0
 15 08 2015  13 45  -21.6038 18589.4 -13765.0 -36.5189 23131.0
 15 08 2015  13 46  -21.6026 18589.8 -13765.1 -36.5186 23131.3
 15 08 2015  13 47  -21.6019 18589.5 -13765.2 -36.5193 23131.1
 15 08 2015  13 48  -21.6007 18588.7 -13765.4 -36.5209 23130.6
 15 08 2015  13 49  -21.5985 18588.5 -13765.7 -36.5217 23130.6
 15 08 2015  13 50  -21.5987 18588.7 -13765.8 -36.5217 23130.9
 15 08 2015  13 51  -21.5964 18590.5 -13765.8 -36.5191 23132.3
 15 08 2015  13 52  -21.5938 18590.9 -13765.7 -36.5182 23132.6
 15 08 2015  13 53  -21.5906 18591.8 -13765.6 -36.5167 23133.2
 15 08 2015  13 54  -21.5888 18590.3 -13765.7 -36.5190 23132.1
 15 08 2015  13 55  -21.5885 18591.1 -13765.9 -36.5181 23132.9
 15 08 2015  13 56  -21.5863 18593.9 -13765.7 -36.5137 23134.9
 15 08 2015  13 57  -21.5829 18595.8 -13765.4 -36.5103 23136.4
 15 08 2015  13 58  -21.5795 18596.6 -13765.3 -36.5090 23136.9
 15 08 2015  13 59  -21.5745 18598.1 -13765.3 -36.5067 23138.1
 15 08 2015  14 00  -21.5699 18599.3 -13765.1 -36.5046 23139.0
 15 08 2015  14 01  -21.5652 18601.2 -13765.1 -36.5017 23140.5
 15 08 2015  14 02  -21.5626 18601.8 -13764.9 -36.5004 23140.8
 15 08 2015  14 03  -21.5636 18601.1 -13764.8 -36.5014 23140.3
 15 08 2015  14 04  -21.5685 18599.1 -13764.9 -36.5046 23138.7
 15 08 2015  14 05  -21.5738 18596.5 -13765.2 -36.5090 23136.8
 15 08 2015  14 06  -21.5807 18594.1 -13765.6 -36.5132 23135.1
 15 08 2015  14 07  -21.5818 18592.4 -13765.9 -36.5165 23133.9
 15 08 2015  14 08  -21.5839 18590.2 -13766.3 -36.5205 23132.3
 15 08 2015  14 09  -21.5856 18588.0 -13766.8 -36.5245 23130.9
 15 08 2015  14 10  -21.5833 18588.2 -13767.1 -36.5249 23131.3
 15 08 2015  14 11  -21.5785 18589.4 -13767.2 -36.5234 23132.3
 15 08 2015  14 12  -21.5737 18590.3 -13767.2 -36.5220 23133.0
 15 08 2015  14 13  -21.5718 18591.0 -13767.2 -36.5210 23133.5
 15 08 2015  14 14  -21.5723 18591.4 -13767.0 -36.5200 23133.8
 15 08 2015  14 15  -21.5710 18592.7 -13766.9 -36.5178 23134.7
 15 08 2015  14 16  -21.5683 18593.8 -13766.7 -36.5159 23135.5
 15 08 2015  14 17  -21.5648 18595.1 -13766.6 -36.5137 23136.5
 15 08 2015  14 18  -21.5568 18598.4 -13766.4 -36.5085 23139.0
 15 08 2015  14 19  -21.5492 18601.3 -13766.0 -36.5035 23141.1
 15 08 2015  14 20  -21.5423 18603.5 -13765.7 -36.4996 23142.7
 15 08 2015  14 21  -21.5420 18604.0 -13765.5 -36.4984 23143.0
 15 08 2015  14 22  -21.5449 18605.1 -13765.3 -36.4964 23143.7
 15 08 2015  14 23  -21.5519 18605.7 -13764.8 -36.4946 23144.0
 15 08 2015  14 24  -21.5562 18606.9 -13764.3 -36.4919 23144.6
 15 08 2015  14 25  -21.5548 18608.2 -13763.9 -36.4891 23145.4
 15 08 2015  14 26  -21.5494 18611.8 -13763.4 -36.4828 23148.0
 15 08 2015  14 27  -21.5440 18617.5 -13762.5 -36.4725 23152.1
 15 08 2015  14 28  -21.5379 18622.9 -13761.3 -36.4624 23155.7
 15 08 2015  14 29  -21.5351 18624.2 -13760.4 -36.4586 23156.2
 15 08 2015  14 30  -21.5439 18621.2 -13760.0 -36.4620 23153.6
 15 08 2015  14 31  -21.5555 18618.5 -13759.8 -36.4658 23151.2
 15 08 2015  14 32  -21.5633 18618.1 -13759.5 -36.4658 23150.7
 15 08 2015  14 33  -21.5661 18617.0 -13759.2 -36.4668 23149.7
 15 08 2015  14 34  -21.5743 18610.3 -13759.4 -36.4770 23144.4
 15 08 2015  14 35  -21.5925 18601.8 -13760.0 -36.4908 23137.9
 15 08 2015  14 36  -21.6061 18595.6 -13760.9 -36.5017 23133.5
 15 08 2015  14 37  -21.6064 18594.5 -13761.6 -36.5046 23133.0
 15 08 2015  14 38  -21.5981 18598.0 -13761.8 -36.4999 23135.9
 15 08 2015  14 39  -21.5937 18599.4 -13761.5 -36.4973 23136.9
 15 08 2015  14 40  -21.5988 18596.7 -13761.4 -36.5011 23134.7
 15 08 2015  14 41  -21.6069 18593.6 -13761.7 -36.5061 23132.4
 15 08 2015  14 42  -21.6111 18592.3 -13762.0 -36.5088 23131.5
 15 08 2015  14 43  -21.6134 18591.2 -13762.2 -36.5108 23130.8
 15 08 2015  14 44  -21.6149 18591.1 -13762.4 -36.5112 23130.8
 15 08 2015  14 45  -21.6145 18591.8 -13762.4 -36.5104 23131.3
 15 08 2015  14 46  -21.6133 18592.5 -13762.4 -36.5091 23131.9
 15 08 2015  14 47  -21.6126 18593.8 -13762.3 -36.5070 23132.9
 15 08 2015  14 48  -21.6117 18595.0 -13762.2 -36.5051 23133.8
 15 08 2015  14 49  -21.6112 18595.4 -13762.2 -36.5045 23134.1
 15 08 2015  14 50  -21.6112 18595.7 -13762.2 -36.5040 23134.3
 15 08 2015  14 51  -21.6102 18596.5 -13762.3 -36.5031 23135.0
 15 08 2015  14 52  -21.6095 18597.1 -13762.2 -36.5020 23135.5
 15 08 2015  14 53  -21.6098 18597.8 -13762.1 -36.5008 23136.0
 15 08 2015  14 54  -21.6082 18599.3 -13762.0 -36.4984 23137.1
 15 08 2015  14 55  -21.6064 18600.7 -13761.9 -36.4961 23138.1
 15 08 2015  14 56  -21.6041 18602.4 -13761.8 -36.4935 23139.5
 15 08 2015  14 57  -21.6011 18604.6 -13761.6 -36.4899 23141.1
 15 08 2015  14 58  -21.5993 18605.5 -13761.6 -36.4885 23141.9
 15 08 2015  14 59  -21.5976 18605.9 -13761.6 -36.4880 23142.2
 15 08 2015  15 00  -21.5967 18606.5 -13761.8 -36.4873 23142.8
 15 08 2015  15 01  -21.5950 18608.3 -13761.7 -36.4845 23144.2
 15 08 2015  15 02  -21.5928 18610.1 -13761.6 -36.4816 23145.6
 15 08 2015  15 03  -21.5894 18613.4 -13761.4 -36.4766 23148.1
 15 08 2015  15 04  -21.5871 18615.3 -13761.0 -36.4730 23149.4
 15 08 2015  15 05  -21.5862 18615.9 -13761.0 -36.4721 23149.9
 15 08 2015  15 06  -21.5859 18616.1 -13761.1 -36.4720 23150.1
 15 08 2015  15 07  -21.5849 18616.1 -13761.4 -36.4724 23150.3
 15 08 2015  15 08  -21.5846 18615.2 -13761.6 -36.4742 23149.7
 15 08 2015  15 09  -21.5840 18613.6 -13762.2 -36.4777 23148.7
 15 08 2015  15 10  -21.5829 18612.9 -13762.8 -36.4799 23148.6
 15 08 2015  15 11  -21.5839 18612.0 -13763.2 -36.4820 23148.1
 15 08 2015  15 12  -21.5853 18610.8 -13763.6 -36.4847 23147.3
 15 08 2015  15 13  -21.5837 18610.9 -13764.1 -36.4856 23147.7
 15 08 2015  15 14  -21.5784 18612.2 -13764.5 -36.4844 23149.0
 15 08 2015  15 15  -21.5736 18612.7 -13764.8 -36.4843 23149.6
 15 08 2015  15 16  -21.5690 18612.9 -13765.3 -36.4849 23150.0
 15 08 2015  15 17  -21.5640 18613.8 -13765.8 -36.4847 23151.1
 15 08 2015  15 18  -21.5615 18614.6 -13766.2 -36.4843 23151.9
 15 08 2015  15 19  -21.5530 18620.0 -13766.4 -36.4767 23156.4
 15 08 2015  15 20  -21.5349 18632.3 -13765.5 -36.4570 23165.7
 15 08 2015  15 21  -21.5232 18636.7 -13764.3 -36.4481 23168.6
 15 08 2015  15 22  -21.5127 18637.7 -13764.2 -36.4463 23169.3
 15 08 2015  15 23  -21.4986 18638.9 -13764.7 -36.4454 23170.6
 15 08 2015  15 24  -21.4915 18639.7 -13765.0 -36.4450 23171.4
 15 08 2015  15 25  -21.4863 18640.6 -13765.4 -36.4444 23172.4
 15 08 2015  15 26  -21.4898 18638.9 -13765.7 -36.4474 23171.2
 15 08 2015  15 27  -21.4924 18638.1 -13766.1 -36.4494 23170.8
 15 08 2015  15 28  -21.4948 18636.6 -13766.4 -36.4523 23169.7
 15 08 2015  15 29  -21.4989 18634.6 -13766.9 -36.4562 23168.4
 15 08 2015  15 30  -21.5045 18634.4 -13767.2 -36.4570 23168.4
 15 08 2015  15 31  -21.5078 18634.7 -13767.1 -36.4564 23168.6
 15 08 2015  15 32  -21.5163 18632.7 -13767.1 -36.4594 23167.0
 15 08 2015  15 33  -21.5254 18629.7 -13767.3 -36.4643 23164.7
 15 08 2015  15 34  -21.5281 18630.1 -13767.6 -36.4642 23165.2
 15 08 2015  15 35  -21.5292 18631.8 -13767.5 -36.4614 23166.5
 15 08 2015  15 36  -21.5306 18631.6 -13767.2 -36.4612 23166.1
 15 08 2015  15 37  -21.5338 18629.7 -13767.2 -36.4640 23164.7
 15 08 2015  15 38  -21.5335 18629.4 -13767.5 -36.4651 23164.6
 15 08 2015  15 39  -21.5318 18630.7 -13767.5 -36.4632 23165.6
 15 08 2015  15 40  -21.5309 18632.0 -13767.3 -36.4608 23166.6
 15 08 2015  15 41  -21.5352 18631.1 -13767.1 -36.4617 23165.7
 15 08 2015  15 42  -21.5432 18628.3 -13767.1 -36.4658 23163.5
 15 08 2015  15 43  -21.5494 18626.4 -13767.2 -36.4689 23162.0
 15 08 2015  15 44  -21.5556 18623.2 -13767.5 -36.4741 23159.6
 15 08 2015  15 45  -21.5600 18619.2 -13767.9 -36.4809 23156.7
 15 08 2015  15 46  -21.5690 18614.7 -13768.4 -36.4885 23153.3
 15 08 2015  15 47  -21.5743 18612.8 -13768.9 -36.4923 23152.1
 15 08 2015  15 48  -21.5702 18613.5 -13769.2 -36.4918 23152.8
 15 08 2015  15 49  -21.5622 18614.9 -13769.2 -36.4897 23154.0
 15 08 2015  15 50  -21.5580 18615.9 -13769.2 -36.4884 23154.7
 15 08 2015  15 51  -21.5578 18616.8 -13769.1 -36.4869 23155.4
 15 08 2015  15 52  -21.5589 18617.3 -13769.0 -36.4858 23155.8
 15 08 2015  15 53  -21.5603 18617.9 -13768.8 -36.4846 23156.1
 15 08 2015  15 54  -21.5628 18617.9 -13768.6 -36.4843 23156.0
 15 08 2015  15 55  -21.5641 18618.0 -13768.5 -36.4839 23156.0
 15 08 2015  15 56  -21.5644 18617.7 -13768.4 -36.4840 23155.8
 15 08 2015  15 57  -21.5629 18618.2 -13768.5 -36.4834 23156.2
 15 08 2015  15 58  -21.5580 18619.8 -13768.4 -36.4811 23157.4
 15 08 2015  15 59  -21.5558 18620.8 -13768.4 -36.4795 23158.2
 15 08 2015  16 00  -21.5551 18621.4 -13768.4 -36.4785 23158.7
 15 08 2015  16 01  -21.5528 18621.3 -13768.5 -36.4788 23158.7
 15 08 2015  16 02  -21.5539 18620.3 -13768.5 -36.4804 23157.9
 15 08 2015  16 03  -21.5519 18620.7 -13768.7 -36.4802 23158.3
 15 08 2015  16 04  -21.5492 18622.0 -13768.6 -36.4783 23159.3
 15 08 2015  16 05  -21.5487 18622.9 -13768.5 -36.4765 23159.9
 15 08 2015  16 06  -21.5485 18623.4 -13768.3 -36.4754 23160.2
 15 08 2015  16 07  -21.5512 18623.7 -13768.1 -36.4746 23160.4
 15 08 2015  16 08  -21.5557 18623.4 -13767.9 -36.4746 23160.0
 15 08 2015  16 09  -21.5593 18623.5 -13767.6 -36.4739 23160.0
 15 08 2015  16 10  -21.5614 18623.8 -13767.4 -36.4730 23160.0
 15 08 2015  16 11  -21.5657 18623.7 -13767.0 -36.4725 23159.8
 15 08 2015  16 12  -21.5684 18623.5 -13766.7 -36.4722 23159.4
 15 08 2015  16 13  -21.5722 18622.3 -13766.6 -36.4737 23158.4
 15 08 2015  16 14  -21.5737 18622.6 -13766.5 -36.4730 23158.5
 15 08 2015  16 15  -21.5761 18622.3 -13766.3 -36.4731 23158.1
 15 08 2015  16 16  -21.5761 18622.6 -13766.1 -36.4723 23158.3
 15 08 2015  16 17  -21.5767 18623.1 -13765.8 -36.4711 23158.5
 15 08 2015  16 18  -21.5791 18622.3 -13765.6 -36.4718 23157.8
 15 08 2015  16 19  -21.5816 18622.0 -13765.4 -36.4719 23157.4
 15 08 2015  16 20  -21.5821 18622.6 -13765.2 -36.4706 23157.8
 15 08 2015  16 21  -21.5824 18622.6 -13765.0 -36.4701 23157.6
 15 08 2015  16 22  -21.5828 18622.8 -13764.9 -36.4695 23157.7
 15 08 2015  16 23  -21.5841 18622.1 -13764.7 -36.4703 23157.1
 15 08 2015  16 24  -21.5855 18620.8 -13764.7 -36.4722 23156.0
 15 08 2015  16 25  -21.5868 18620.3 -13764.7 -36.4728 23155.6
 15 08 2015  16 26  -21.5871 18620.7 -13764.5 -36.4718 23155.8
 15 08 2015  16 27  -21.5876 18621.6 -13764.2 -36.4701 23156.4
 15 08 2015  16 28  -21.5881 18621.3 -13764.1 -36.4702 23156.1
 15 08 2015  16 29  -21.5884 18621.9 -13764.0 -36.4690 23156.5
 15 08 2015  16 30  -21.5871 18623.2 -13763.7 -36.4668 23157.4
 15 08 2015  16 31  -21.5848 18623.6 -13763.5 -36.4657 23157.5
 15 08 2015  16 32  -21.5835 18623.4 -13763.4 -36.4657 23157.3
 15 08 2015  16 33  -21.5831 18622.6 -13763.3 -36.4667 23156.6
 15 08 2015  16 34  -21.5818 18622.0 -13763.3 -36.4676 23156.2
 15 08 2015  16 35  -21.5818 18622.1 -13763.2 -36.4672 23156.1
 15 08 2015  16 36  -21.5827 18621.2 -13763.1 -36.4684 23155.4
 15 08 2015  16 37  -21.5840 18620.0 -13763.0 -36.4700 23154.3
 15 08 2015  16 38  -21.5851 18618.9 -13763.0 -36.4715 23153.4
 15 08 2015  16 39  -21.5871 18616.7 -13763.0 -36.4747 23151.7
 15 08 2015  16 40  -21.5870 18615.3 -13763.1 -36.4769 23150.7
 15 08 2015  16 41  -21.5879 18614.3 -13763.0 -36.4785 23149.8
 15 08 2015  16 42  -21.5891 18614.1 -13762.9 -36.4783 23149.6
 15 08 2015  16 43  -21.5895 18614.3 -13762.7 -36.4776 23149.6
 15 08 2015  16 44  -21.5893 18614.2 -13762.6 -36.4777 23149.4
 15 08 2015  16 45  -21.5887 18613.7 -13762.6 -36.4786 23149.1
 15 08 2015  16 46  -21.5874 18613.3 -13762.7 -36.4793 23148.8
 15 08 2015  16 47  -21.5862 18612.9 -13762.8 -36.4801 23148.5
 15 08 2015  16 48  -21.5857 18612.4 -13763.0 -36.4811 23148.2
 15 08 2015  16 49  -21.5855 18612.3 -13763.1 -36.4813 23148.2
 15 08 2015  16 50  -21.5852 18611.9 -13763.1 -36.4820 23147.9
 15 08 2015  16 51  -21.5849 18611.1 -13763.1 -36.4833 23147.3
 15 08 2015  16 52  -21.5847 18611.1 -13763.1 -36.4832 23147.3
 15 08 2015  16 53  -21.5844 18611.5 -13763.0 -36.4825 23147.6
 15 08 2015  16 54  -21.5842 18611.9 -13762.8 -36.4815 23147.7
 15 08 2015  16 55  -21.5831 18612.6 -13762.6 -36.4800 23148.1
 15 08 2015  16 56  -21.5824 18612.9 -13762.4 -36.4792 23148.2
 15 08 2015  16 57  -21.5815 18612.6 -13762.2 -36.4793 23147.9
 15 08 2015  16 58  -21.5801 18612.6 -13762.2 -36.4793 23147.9
 15 08 2015  16 59  -21.5796 18612.4 -13762.2 -36.4794 23147.8
 15 08 2015  17 00  -21.5795 18611.8 -13762.1 -36.4802 23147.2
 15 08 2015  17 01  -21.5791 18611.2 -13762.1 -36.4811 23146.8
 15 08 2015  17 02  -21.5792 18611.0 -13762.1 -36.4815 23146.6
 15 08 2015  17 03  -21.5791 18610.4 -13762.2 -36.4824 23146.2
 15 08 2015  17 04  -21.5800 18609.8 -13762.2 -36.4834 23145.7
 15 08 2015  17 05  -21.5795 18609.2 -13762.3 -36.4845 23145.3
 15 08 2015  17 06  -21.5800 18608.2 -13762.4 -36.4862 23144.5
 15 08 2015  17 07  -21.5802 18606.4 -13762.6 -36.4891 23143.2
 15 08 2015  17 08  -21.5812 18605.1 -13762.9 -36.4916 23142.3
 15 08 2015  17 09  -21.5819 18604.3 -13763.0 -36.4930 23141.8
 15 08 2015  17 10  -21.5826 18604.0 -13763.1 -36.4937 23141.6
 15 08 2015  17 11  -21.5827 18603.7 -13763.2 -36.4943 23141.4
 15 08 2015  17 12  -21.5817 18603.7 -13763.3 -36.4946 23141.4
 15 08 2015  17 13  -21.5804 18603.7 -13763.4 -36.4948 23141.5
 15 08 2015  17 14  -21.5794 18603.5 -13763.5 -36.4951 23141.4
 15 08 2015  17 15  -21.5769 18604.3 -13763.6 -36.4941 23142.1
 15 08 2015  17 16  -21.5749 18605.9 -13763.5 -36.4916 23143.3
 15 08 2015  17 17  -21.5747 18607.0 -13763.3 -36.4896 23144.1
 15 08 2015  17 18  -21.5748 18607.9 -13763.2 -36.4882 23144.7
 15 08 2015  17 19  -21.5763 18608.1 -13763.1 -36.4878 23144.9
 15 08 2015  17 20  -21.5774 18607.4 -13763.1 -36.4886 23144.3
 15 08 2015  17 21  -21.5771 18606.1 -13763.2 -36.4908 23143.4
 15 08 2015  17 22  -21.5767 18604.4 -13763.6 -36.4941 23142.1
 15 08 2015  17 23  -21.5754 18604.4 -13763.9 -36.4947 23142.3
 15 08 2015  17 24  -21.5719 18605.2 -13764.1 -36.4939 23143.1
 15 08 2015  17 25  -21.5705 18605.2 -13764.3 -36.4943 23143.2
 15 08 2015  17 26  -21.5711 18606.3 -13764.4 -36.4929 23144.1
 15 08 2015  17 27  -21.5684 18607.6 -13764.4 -36.4908 23145.2
 15 08 2015  17 28  -21.5650 18608.0 -13764.4 -36.4905 23145.5
 15 08 2015  17 29  -21.5625 18608.1 -13764.6 -36.4907 23145.7
 15 08 2015  17 30  -21.5628 18608.2 -13764.6 -36.4905 23145.9
 15 08 2015  17 31  -21.5639 18608.3 -13764.7 -36.4905 23146.0
 15 08 2015  17 32  -21.5656 18607.8 -13764.7 -36.4913 23145.6
 15 08 2015  17 33  -21.5667 18607.6 -13764.8 -36.4917 23145.4
 15 08 2015  17 34  -21.5682 18607.2 -13764.9 -36.4924 23145.2
 15 08 2015  17 35  -21.5679 18607.2 -13764.9 -36.4926 23145.2
 15 08 2015  17 36  -21.5681 18607.1 -13765.0 -36.4929 23145.2
 15 08 2015  17 37  -21.5673 18607.0 -13765.1 -36.4934 23145.2
 15 08 2015  17 38  -21.5656 18607.2 -13765.2 -36.4932 23145.4
 15 08 2015  17 39  -21.5652 18607.4 -13765.3 -36.4932 23145.6
 15 08 2015  17 40  -21.5658 18607.6 -13765.3 -36.4928 23145.8
 15 08 2015  17 41  -21.5664 18607.5 -13765.4 -36.4931 23145.7
 15 08 2015  17 42  -21.5658 18607.1 -13765.5 -36.4938 23145.5
 15 08 2015  17 43  -21.5671 18606.5 -13765.6 -36.4949 23145.0
 15 08 2015  17 44  -21.5683 18605.9 -13765.7 -36.4959 23144.6
 15 08 2015  17 45  -21.5682 18606.2 -13765.7 -36.4957 23144.9
 15 08 2015  17 46  -21.5688 18606.0 -13765.7 -36.4960 23144.7
 15 08 2015  17 47  -21.5700 18605.7 -13765.7 -36.4965 23144.5
 15 08 2015  17 48  -21.5708 18605.5 -13765.7 -36.4967 23144.3
 15 08 2015  17 49  -21.5726 18605.3 -13765.7 -36.4969 23144.1
 15 08 2015  17 50  -21.5744 18605.8 -13765.5 -36.4957 23144.4
 15 08 2015  17 51  -21.5765 18606.1 -13765.3 -36.4951 23144.5
 15 08 2015  17 52  -21.5779 18606.3 -13765.2 -36.4945 23144.6
 15 08 2015  17 53  -21.5787 18606.4 -13765.1 -36.4942 23144.7
 15 08 2015  17 54  -21.5789 18606.3 -13765.2 -36.4944 23144.6
 15 08 2015  17 55  -21.5802 18606.2 -13765.1 -36.4945 23144.5
 15 08 2015  17 56  -21.5823 18605.5 -13765.2 -36.4956 23144.0
 15 08 2015  17 57  -21.5838 18604.9 -13765.2 -36.4965 23143.5
 15 08 2015  17 58  -21.5872 18604.4 -13765.1 -36.4969 23143.1
 15 08 2015  17 59  -21.5904 18604.1 -13764.9 -36.4971 23142.7
 15 08 2015  18 00  -21.5931 18603.9 -13764.7 -36.4971 23142.4
 15 08 2015  18 01  -21.5960 18603.8 -13764.5 -36.4968 23142.2
 15 08 2015  18 02  -21.5985 18602.7 -13764.3 -36.4980 23141.2
 15 08 2015  18 03  -21.5998 18601.5 -13764.3 -36.4998 23140.3
 15 08 2015  18 04  -21.6014 18600.6 -13764.4 -36.5013 23139.6
 15 08 2015  18 05  -21.6036 18599.9 -13764.4 -36.5023 23139.1
 15 08 2015  18 06  -21.6056 18599.6 -13764.3 -36.5026 23138.8
 15 08 2015  18 07  -21.6068 18599.2 -13764.2 -36.5029 23138.3
 15 08 2015  18 08  -21.6083 18598.4 -13764.0 -36.5036 23137.6
 15 08 2015  18 09  -21.6102 18597.7 -13763.9 -36.5046 23136.9
 15 08 2015  18 10  -21.6114 18597.1 -13763.8 -36.5052 23136.4
 15 08 2015  18 11  -21.6131 18596.4 -13763.6 -36.5059 23135.8
 15 08 2015  18 12  -21.6147 18595.7 -13763.4 -36.5065 23135.0
 15 08 2015  18 13  -21.6161 18594.7 -13763.5 -36.5080 23134.3
 15 08 2015  18 14  -21.6166 18594.5 -13763.3 -36.5081 23134.0
 15 08 2015  18 15  -21.6169 18594.1 -13763.1 -36.5084 23133.6
 15 08 2015  18 16  -21.6169 18594.4 -13763.0 -36.5077 23133.7
 15 08 2015  18 17  -21.6161 18594.4 -13762.8 -36.5073 23133.6
 15 08 2015  18 18  -21.6160 18594.2 -13762.6 -36.5071 23133.4
 15 08 2015  18 19  -21.6152 18594.6 -13762.5 -36.5063 23133.6
 15 08 2015  18 20  -21.6149 18594.5 -13762.3 -36.5061 23133.5
 15 08 2015  18 21  -21.6157 18594.2 -13762.2 -36.5063 23133.2
 15 08 2015  18 22  -21.6161 18593.9 -13762.1 -36.5065 23132.8
 15 08 2015  18 23  -21.6160 18593.6 -13762.0 -36.5068 23132.6
 15 08 2015  18 24  -21.6154 18593.9 -13761.9 -36.5061 23132.7
 15 08 2015  18 25  -21.6152 18593.9 -13761.8 -36.5060 23132.7
 15 08 2015  18 26  -21.6154 18593.6 -13761.7 -36.5063 23132.4
 15 08 2015  18 27  -21.6150 18593.5 -13761.7 -36.5064 23132.2
 15 08 2015  18 28  -21.6141 18593.3 -13761.6 -36.5064 23132.1
 15 08 2015  18 29  -21.6134 18593.3 -13761.5 -36.5063 23132.1
 15 08 2015  18 30  -21.6131 18593.0 -13761.4 -36.5065 23131.7
 15 08 2015  18 31  -21.6127 18592.8 -13761.4 -36.5069 23131.6
 15 08 2015  18 32  -21.6133 18591.7 -13761.3 -36.5083 23130.6
 15 08 2015  18 33  -21.6136 18591.0 -13761.5 -36.5096 23130.1
 15 08 2015  18 34  -21.6127 18590.9 -13761.4 -36.5097 23130.1
 15 08 2015  18 35  -21.6124 18590.6 -13761.4 -36.5099 23129.8
 15 08 2015  18 36  -21.6123 18590.2 -13761.4 -36.5106 23129.5
 15 08 2015  18 37  -21.6118 18589.9 -13761.4 -36.5111 23129.2
 15 08 2015  18 38  -21.6115 18589.5 -13761.5 -36.5118 23128.9
 15 08 2015  18 39  -21.6107 18589.2 -13761.5 -36.5123 23128.7
 15 08 2015  18 40  -21.6109 18588.8 -13761.6 -36.5130 23128.4
 15 08 2015  18 41  -21.6109 18588.3 -13761.7 -36.5140 23128.0
 15 08 2015  18 42  -21.6109 18587.8 -13761.8 -36.5148 23127.8
 15 08 2015  18 43  -21.6099 18587.7 -13761.8 -36.5151 23127.7
 15 08 2015  18 44  -21.6087 18587.7 -13761.9 -36.5152 23127.7
 15 08 2015  18 45  -21.6080 18588.0 -13761.9 -36.5148 23128.0
 15 08 2015  18 46  -21.6071 18588.2 -13761.9 -36.5145 23128.1
 15 08 2015  18 47  -21.6064 18588.1 -13761.9 -36.5147 23128.1
 15 08 2015  18 48  -21.6054 18587.8 -13762.0 -36.5154 23127.9
 15 08 2015  18 49  -21.6042 18587.4 -13762.2 -36.5164 23127.6
 15 08 2015  18 50  -21.6027 18586.7 -13762.4 -36.5179 23127.2
 15 08 2015  18 51  -21.6019 18586.0 -13762.7 -36.5194 23126.8
 15 08 2015  18 52  -21.6011 18585.4 -13762.8 -36.5206 23126.4
 15 08 2015  18 53  -21.6005 18585.3 -13763.0 -36.5209 23126.4
 15 08 2015  18 54  -21.6008 18585.6 -13762.9 -36.5205 23126.6
 15 08 2015  18 55  -21.6005 18586.0 -13762.9 -36.5197 23127.0
 15 08 2015  18 56  -21.6014 18585.7 -13762.8 -36.5201 23126.6
 15 08 2015  18 57  -21.6033 18585.1 -13762.9 -36.5210 23126.2
 15 08 2015  18 58  -21.6046 18584.5 -13762.9 -36.5220 23125.8
 15 08 2015  18 59  -21.6052 18584.0 -13762.9 -36.5228 23125.4
 15 08 2015  19 00  -21.6059 18583.3 -13763.0 -36.5239 23124.9
 15 08 2015  19 01  -21.6060 18583.1 -13763.0 -36.5244 23124.7
 15 08 2015  19 02  -21.6057 18583.4 -13763.0 -36.5239 23124.9
 15 08 2015  19 03  -21.6057 18583.7 -13762.9 -36.5232 23125.1
 15 08 2015  19 04  -21.6068 18584.2 -13762.6 -36.5219 23125.4
 15 08 2015  19 05  -21.6092 18584.2 -13762.4 -36.5214 23125.2
 15 08 2015  19 06  -21.6114 18584.0 -13762.2 -36.5213 23124.9
 15 08 2015  19 07  -21.6141 18583.5 -13762.0 -36.5218 23124.5
 15 08 2015  19 08  -21.6152 18583.1 -13762.0 -36.5224 23124.1
 15 08 2015  19 09  -21.6160 18583.0 -13762.0 -36.5224 23124.0
 15 08 2015  19 10  -21.6177 18583.0 -13761.8 -36.5220 23123.9
 15 08 2015  19 11  -21.6196 18583.2 -13761.6 -36.5215 23124.0
 15 08 2015  19 12  -21.6218 18582.9 -13761.4 -36.5213 23123.6
 15 08 2015  19 13  -21.6238 18582.6 -13761.2 -36.5214 23123.2
 15 08 2015  19 14  -21.6246 18582.0 -13761.0 -36.5219 23122.7
 15 08 2015  19 15  -21.6253 18582.0 -13760.9 -36.5217 23122.6
 15 08 2015  19 16  -21.6261 18582.1 -13760.8 -36.5214 23122.6
 15 08 2015  19 17  -21.6263 18581.9 -13760.8 -36.5216 23122.4
 15 08 2015  19 18  -21.6266 18581.3 -13760.7 -36.5224 23121.9
 15 08 2015  19 19  -21.6278 18580.8 -13760.6 -36.5230 23121.5
 15 08 2015  19 20  -21.6286 18580.5 -13760.6 -36.5233 23121.2
 15 08 2015  19 21  -21.6293 18580.1 -13760.5 -36.5237 23120.8
 15 08 2015  19 22  -21.6299 18579.8 -13760.4 -36.5241 23120.5
 15 08 2015  19 23  -21.6308 18579.7 -13760.4 -36.5242 23120.4
 15 08 2015  19 24  -21.6317 18579.6 -13760.3 -36.5240 23120.3
 15 08 2015  19 25  -21.6318 18579.6 -13760.2 -36.5238 23120.3
 15 08 2015  19 26  -21.6314 18580.4 -13760.0 -36.5224 23120.8
 15 08 2015  19 27  -21.6318 18580.8 -13759.9 -36.5214 23121.0
 15 08 2015  19 28  -21.6327 18580.4 -13759.7 -36.5217 23120.6
 15 08 2015  19 29  -21.6327 18580.1 -13759.6 -36.5219 23120.3
 15 08 2015  19 30  -21.6319 18580.4 -13759.5 -36.5214 23120.5
 15 08 2015  19 31  -21.6315 18580.8 -13759.4 -36.5206 23120.7
 15 08 2015  19 32  -21.6310 18581.5 -13759.2 -36.5192 23121.1
 15 08 2015  19 33  -21.6315 18581.6 -13759.0 -36.5185 23121.1
 15 08 2015  19 34  -21.6307 18581.4 -13759.0 -36.5188 23121.0
 15 08 2015  19 35  -21.6303 18580.9 -13759.0 -36.5196 23120.6
 15 08 2015  19 36  -21.6309 18580.3 -13759.1 -36.5207 23120.1
 15 08 2015  19 37  -21.6316 18579.4 -13759.3 -36.5224 23119.6
 15 08 2015  19 38  -21.6323 18578.6 -13759.5 -36.5239 23119.0
 15 08 2015  19 39  -21.6326 18578.0 -13759.6 -36.5249 23118.6
 15 08 2015  19 40  -21.6333 18577.5 -13759.6 -36.5257 23118.2
 15 08 2015  19 41  -21.6350 18577.6 -13759.5 -36.5255 23118.2
 15 08 2015  19 42  -21.6358 18578.0 -13759.3 -36.5245 23118.4
 15 08 2015  19 43  -21.6372 18577.6 -13759.1 -36.5247 23118.0
 15 08 2015  19 44  -21.6394 18577.1 -13759.0 -36.5251 23117.5
 15 08 2015  19 45  -21.6397 18577.1 -13759.0 -36.5252 23117.5
 15 08 2015  19 46  -21.6389 18577.4 -13758.9 -36.5246 23117.7
 15 08 2015  19 47  -21.6377 18578.0 -13758.9 -36.5237 23118.1
 15 08 2015  19 48  -21.6366 18578.8 -13758.7 -36.5221 23118.6
 15 08 2015  19 49  -21.6372 18579.1 -13758.5 -36.5212 23118.8
 15 08 2015  19 50  -21.6369 18579.3 -13758.4 -36.5208 23118.9
 15 08 2015  19 51  -21.6366 18579.5 -13758.3 -36.5201 23119.0
 15 08 2015  19 52  -21.6363 18580.3 -13758.2 -36.5189 23119.6
 15 08 2015  19 53  -21.6360 18580.6 -13758.0 -36.5180 23119.7
 15 08 2015  19 54  -21.6357 18580.7 -13758.0 -36.5180 23119.8
 15 08 2015  19 55  -21.6347 18580.3 -13758.2 -36.5188 23119.5
 15 08 2015  19 56  -21.6342 18579.7 -13758.4 -36.5201 23119.2
 15 08 2015  19 57  -21.6341 18579.2 -13758.6 -36.5213 23118.9
 15 08 2015  19 58  -21.6332 18579.2 -13758.7 -36.5215 23119.1
 15 08 2015  19 59  -21.6324 18579.0 -13758.9 -36.5222 23119.0
 15 08 2015  20 00  -21.6318 18579.0 -13759.0 -36.5224 23119.0
 15 08 2015  20 01  -21.6315 18578.6 -13759.0 -36.5230 23118.7
 15 08 2015  20 02  -21.6316 18578.2 -13759.2 -36.5238 23118.5
 15 08 2015  20 03  -21.6309 18578.0 -13759.3 -36.5244 23118.4
 15 08 2015  20 04  -21.6308 18577.9 -13759.4 -36.5248 23118.4
 15 08 2015  20 05  -21.6301 18577.9 -13759.5 -36.5249 23118.4
 15 08 2015  20 06  -21.6293 18578.0 -13759.6 -36.5250 23118.5
 15 08 2015  20 07  -21.6283 18578.1 -13759.6 -36.5249 23118.7
 15 08 2015  20 08  -21.6276 18579.0 -13759.6 -36.5235 23119.4
 15 08 2015  20 09  -21.6271 18579.8 -13759.5 -36.5221 23120.0
 15 08 2015  20 10  -21.6268 18580.4 -13759.4 -36.5210 23120.4
 15 08 2015  20 11  -21.6263 18581.0 -13759.3 -36.5200 23120.8
 15 08 2015  20 12  -21.6252 18581.6 -13759.3 -36.5191 23121.3
 15 08 2015  20 13  -21.6247 18581.7 -13759.3 -36.5190 23121.4
 15 08 2015  20 14  -21.6243 18581.5 -13759.4 -36.5194 23121.3
 15 08 2015  20 15  -21.6239 18581.5 -13759.5 -36.5196 23121.3
 15 08 2015  20 16  -21.6234 18581.4 -13759.6 -36.5199 23121.3
 15 08 2015  20 17  -21.6231 18581.3 -13759.6 -36.5202 23121.2
 15 08 2015  20 18  -21.6236 18580.8 -13759.8 -36.5212 23120.9
 15 08 2015  20 19  -21.6236 18580.7 -13759.9 -36.5215 23120.9
 15 08 2015  20 20  -21.6236 18580.5 -13760.0 -36.5220 23120.8
 15 08 2015  20 21  -21.6236 18580.5 -13760.0 -36.5222 23120.8
 15 08 2015  20 22  -21.6236 18580.4 -13760.1 -36.5225 23120.8
 15 08 2015  20 23  -21.6241 18580.4 -13760.2 -36.5226 23120.8
 15 08 2015  20 24  -21.6246 18580.5 -13760.2 -36.5225 23120.9
 15 08 2015  20 25  -21.6240 18580.9 -13760.1 -36.5218 23121.2
 15 08 2015  20 26  -21.6239 18581.3 -13760.1 -36.5211 23121.5
 15 08 2015  20 27  -21.6240 18581.6 -13760.0 -36.5204 23121.7
 15 08 2015  20 28  -21.6248 18581.5 -13759.9 -36.5206 23121.6
 15 08 2015  20 29  -21.6249 18581.5 -13759.9 -36.5205 23121.6
 15 08 2015  20 30  -21.6254 18581.3 -13759.9 -36.5207 23121.4
 15 08 2015  20 31  -21.6253 18581.2 -13759.9 -36.5209 23121.4
 15 08 2015  20 32  -21.6254 18581.3 -13759.9 -36.5208 23121.4
 15 08 2015  20 33  -21.6257 18581.4 -13759.9 -36.5206 23121.5
 15 08 2015  20 34  -21.6257 18581.6 -13759.9 -36.5203 23121.6
 15 08 2015  20 35  -21.6257 18581.7 -13759.8 -36.5200 23121.7
 15 08 2015  20 36  -21.6256 18582.0 -13759.9 -36.5197 23121.9
 15 08 2015  20 37  -21.6259 18581.9 -13759.9 -36.5198 23121.9
 15 08 2015  20 38  -21.6262 18582.1 -13759.8 -36.5194 23122.0
 15 08 2015  20 39  -21.6263 18582.1 -13759.8 -36.5194 23122.0
 15 08 2015  20 40  -21.6266 18581.8 -13759.9 -36.5199 23121.8
 15 08 2015  20 41  -21.6273 18581.9 -13759.9 -36.5198 23121.9
 15 08 2015  20 42  -21.6281 18582.3 -13759.8 -36.5191 23122.2
 15 08 2015  20 43  -21.6295 18582.3 -13759.8 -36.5190 23122.1
 15 08 2015  20 44  -21.6300 18582.2 -13759.8 -36.5192 23122.0
 15 08 2015  20 45  -21.6304 18582.0 -13759.7 -36.5195 23121.8
 15 08 2015  20 46  -21.6315 18581.6 -13759.8 -36.5201 23121.6
 15 08 2015  20 47  -21.6321 18581.2 -13759.9 -36.5208 23121.4
 15 08 2015  20 48  -21.6321 18581.1 -13760.0 -36.5213 23121.3
 15 08 2015  20 49  -21.6315 18580.9 -13760.1 -36.5217 23121.2
 15 08 2015  20 50  -21.6304 18580.8 -13760.2 -36.5222 23121.2
 15 08 2015  20 51  -21.6293 18580.3 -13760.4 -36.5232 23120.9
 15 08 2015  20 52  -21.6290 18580.3 -13760.5 -36.5235 23121.0
 15 08 2015  20 53  -21.6283 18580.0 -13760.7 -36.5242 23120.8
 15 08 2015  20 54  -21.6285 18579.9 -13760.7 -36.5245 23120.7
 15 08 2015  20 55  -21.6285 18579.5 -13760.7 -36.5250 23120.5
 15 08 2015  20 56  -21.6288 18579.2 -13760.8 -36.5258 23120.2
 15 08 2015  20 57  -21.6303 18578.9 -13760.9 -36.5264 23120.1
 15 08 2015  20 58  -21.6304 18578.9 -13761.0 -36.5264 23120.1
 15 08 2015  20 59  -21.6298 18579.0 -13761.0 -36.5264 23120.3
 15 08 2015  21 00  -21.6296 18579.0 -13761.1 -36.5264 23120.3
 15 08 2015  21 01  -21.6297 18578.8 -13761.1 -36.5268 23120.1
 15 08 2015  21 02  -21.6300 18578.5 -13761.2 -36.5275 23119.9
 15 08 2015  21 03  -21.6311 18578.0 -13761.2 -36.5283 23119.5
 15 08 2015  21 04  -21.6324 18577.7 -13761.2 -36.5288 23119.3
 15 08 2015  21 05  -21.6334 18577.4 -13761.3 -36.5293 23119.1
 15 08 2015  21 06  -21.6350 18577.4 -13761.3 -36.5293 23119.0
 15 08 2015  21 07  -21.6361 18577.2 -13761.2 -36.5294 23118.9
 15 08 2015  21 08  -21.6371 18577.0 -13761.2 -36.5296 23118.7
 15 08 2015  21 09  -21.6373 18577.2 -13761.1 -36.5293 23118.8
 15 08 2015  21 10  -21.6383 18577.3 -13761.0 -36.5289 23118.8
 15 08 2015  21 11  -21.6405 18577.1 -13760.9 -36.5288 23118.6
 15 08 2015  21 12  -21.6427 18577.2 -13760.7 -36.5283 23118.6
 15 08 2015  21 13  -21.6441 18577.4 -13760.5 -36.5277 23118.6
 15 08 2015  21 14  -21.6443 18577.5 -13760.4 -36.5273 23118.6
 15 08 2015  21 15  -21.6448 18577.7 -13760.2 -36.5267 23118.7
 15 08 2015  21 16  -21.6449 18578.0 -13760.1 -36.5259 23118.9
 15 08 2015  21 17  -21.6446 18578.7 -13759.8 -36.5244 23119.3
 15 08 2015  21 18  -21.6443 18579.5 -13759.6 -36.5228 23119.7
 15 08 2015  21 19  -21.6437 18580.1 -13759.4 -36.5216 23120.1
 15 08 2015  21 20  -21.6429 18580.5 -13759.2 -36.5207 23120.3
 15 08 2015  21 21  -21.6442 18580.4 -13759.1 -36.5206 23120.2
 15 08 2015  21 22  -21.6449 18580.4 -13759.1 -36.5206 23120.2
 15 08 2015  21 23  -21.6437 18581.2 -13759.0 -36.5192 23120.8
 15 08 2015  21 24  -21.6440 18580.9 -13759.0 -36.5197 23120.6
 15 08 2015  21 25  -21.6448 18580.5 -13759.1 -36.5204 23120.3
 15 08 2015  21 26  -21.6447 18580.6 -13759.3 -36.5206 23120.4
 15 08 2015  21 27  -21.6439 18581.0 -13759.3 -36.5199 23120.8
 15 08 2015  21 28  -21.6423 18581.7 -13759.2 -36.5187 23121.3
 15 08 2015  21 29  -21.6406 18582.7 -13759.1 -36.5169 23122.1
 15 08 2015  21 30  -21.6392 18583.0 -13758.9 -36.5162 23122.2
 15 08 2015  21 31  -21.6398 18582.9 -13758.8 -36.5162 23122.1
 15 08 2015  21 32  -21.6387 18583.1 -13758.8 -36.5160 23122.2
 15 08 2015  21 33  -21.6365 18583.2 -13758.8 -36.5157 23122.3
 15 08 2015  21 34  -21.6355 18582.8 -13758.8 -36.5164 23121.9
 15 08 2015  21 35  -21.6367 18581.8 -13758.9 -36.5181 23121.2
 15 08 2015  21 36  -21.6382 18580.5 -13759.1 -36.5203 23120.3
 15 08 2015  21 37  -21.6379 18580.1 -13759.3 -36.5212 23120.1
 15 08 2015  21 38  -21.6357 18580.7 -13759.4 -36.5207 23120.6
 15 08 2015  21 39  -21.6344 18580.6 -13759.4 -36.5209 23120.5
 15 08 2015  21 40  -21.6331 18580.3 -13759.5 -36.5215 23120.4
 15 08 2015  21 41  -21.6325 18579.6 -13759.7 -36.5228 23119.9
 15 08 2015  21 42  -21.6331 18578.6 -13759.9 -36.5247 23119.2
 15 08 2015  21 43  -21.6341 18577.4 -13760.0 -36.5268 23118.4
 15 08 2015  21 44  -21.6341 18576.6 -13760.3 -36.5283 23117.9
 15 08 2015  21 45  -21.6328 18576.2 -13760.5 -36.5295 23117.6
 15 08 2015  21 46  -21.6324 18575.9 -13760.6 -36.5301 23117.5
 15 08 2015  21 47  -21.6328 18576.4 -13760.6 -36.5294 23117.9
 15 08 2015  21 48  -21.6332 18576.8 -13760.5 -36.5286 23118.2
 15 08 2015  21 49  -21.6334 18576.9 -13760.5 -36.5285 23118.2
 15 08 2015  21 50  -21.6335 18576.6 -13760.5 -36.5288 23118.0
 15 08 2015  21 51  -21.6340 18576.5 -13760.5 -36.5292 23117.9
 15 08 2015  21 52  -21.6333 18576.8 -13760.6 -36.5288 23118.1
 15 08 2015  21 53  -21.6321 18577.3 -13760.5 -36.5279 23118.5
 15 08 2015  21 54  -21.6308 18577.6 -13760.5 -36.5273 23118.8
 15 08 2015  21 55  -21.6297 18578.1 -13760.4 -36.5266 23119.2
 15 08 2015  21 56  -21.6288 18578.2 -13760.4 -36.5263 23119.3
 15 08 2015  21 57  -21.6277 18578.9 -13760.4 -36.5253 23119.7
 15 08 2015  21 58  -21.6264 18579.7 -13760.3 -36.5239 23120.3
 15 08 2015  21 59  -21.6258 18580.1 -13760.2 -36.5231 23120.6
 15 08 2015  22 00  -21.6261 18580.6 -13760.0 -36.5219 23120.9
 15 08 2015  22 01  -21.6266 18580.9 -13759.9 -36.5213 23121.1
 15 08 2015  22 02  -21.6266 18581.2 -13759.8 -36.5207 23121.3
 15 08 2015  22 03  -21.6277 18581.2 -13759.7 -36.5206 23121.2
 15 08 2015  22 04  -21.6296 18580.6 -13759.7 -36.5214 23120.7
 15 08 2015  22 05  -21.6317 18579.9 -13759.7 -36.5224 23120.2
 15 08 2015  22 06  -21.6323 18579.6 -13759.8 -36.5230 23120.0
 15 08 2015  22 07  -21.6316 18580.2 -13759.9 -36.5223 23120.5
 15 08 2015  22 08  -21.6311 18580.4 -13759.8 -36.5220 23120.6
 15 08 2015  22 09  -21.6306 18580.5 -13759.8 -36.5217 23120.7
 15 08 2015  22 10  -21.6312 18580.5 -13759.8 -36.5217 23120.7
 15 08 2015  22 11  -21.6331 18580.1 -13759.7 -36.5222 23120.3
 15 08 2015  22 12  -21.6344 18580.0 -13759.7 -36.5223 23120.3
 15 08 2015  22 13  -21.6346 18580.4 -13759.7 -36.5216 23120.6
 15 08 2015  22 14  -21.6354 18580.6 -13759.6 -36.5212 23120.7
 15 08 2015  22 15  -21.6347 18581.2 -13759.5 -36.5201 23121.1
 15 08 2015  22 16  -21.6349 18581.3 -13759.3 -36.5196 23121.1
 15 08 2015  22 17  -21.6344 18581.7 -13759.3 -36.5190 23121.4
 15 08 2015  22 18  -21.6328 18582.2 -13759.2 -36.5181 23121.7
 15 08 2015  22 19  -21.6309 18582.5 -13759.2 -36.5177 23121.9
 15 08 2015  22 20  -21.6295 18582.6 -13759.2 -36.5174 23122.0
 15 08 2015  22 21  -21.6286 18583.2 -13759.2 -36.5166 23122.5
 15 08 2015  22 22  -21.6269 18583.7 -13759.1 -36.5157 23122.9
 15 08 2015  22 23  -21.6260 18584.1 -13759.1 -36.5149 23123.2
 15 08 2015  22 24  -21.6251 18584.3 -13759.1 -36.5146 23123.4
 15 08 2015  22 25  -21.6242 18584.5 -13759.1 -36.5143 23123.5
 15 08 2015  22 26  -21.6237 18584.6 -13759.0 -36.5142 23123.5
 15 08 2015  22 27  -21.6231 18584.8 -13759.0 -36.5139 23123.7
 15 08 2015  22 28  -21.6219 18585.2 -13759.0 -36.5133 23124.0
 15 08 2015  22 29  -21.6206 18585.6 -13759.0 -36.5126 23124.3
 15 08 2015  22 30  -21.6196 18585.9 -13759.0 -36.5122 23124.5
 15 08 2015  22 31  -21.6190 18586.3 -13758.9 -36.5115 23124.9
 15 08 2015  22 32  -21.6184 18586.3 -13758.9 -36.5114 23124.8
 15 08 2015  22 33  -21.6181 18586.5 -13758.9 -36.5112 23125.0
 15 08 2015  22 34  -21.6176 18586.7 -13758.9 -36.5108 23125.2
 15 08 2015  22 35  -21.6181 18586.6 -13758.9 -36.5108 23125.1
 15 08 2015  22 36  -21.6183 18586.2 -13758.9 -36.5116 23124.8
 15 08 2015  22 37  -21.6174 18586.3 -13759.0 -36.5116 23124.9
 15 08 2015  22 38  -21.6157 18586.6 -13759.1 -36.5113 23125.2
 15 08 2015  22 39  -21.6144 18586.6 -13759.2 -36.5115 23125.2
 15 08 2015  22 40  -21.6135 18586.4 -13759.3 -36.5120 23125.2
 15 08 2015  22 41  -21.6120 18586.3 -13759.4 -36.5124 23125.2
 15 08 2015  22 42  -21.6105 18586.4 -13759.6 -36.5126 23125.3
 15 08 2015  22 43  -21.6094 18586.6 -13759.6 -36.5124 23125.5
 15 08 2015  22 44  -21.6090 18586.5 -13759.7 -36.5126 23125.5
 15 08 2015  22 45  -21.6094 18586.1 -13759.8 -36.5136 23125.2
 15 08 2015  22 46  -21.6098 18585.6 -13760.0 -36.5146 23124.9
 15 08 2015  22 47  -21.6098 18585.4 -13760.2 -36.5153 23124.9
 15 08 2015  22 48  -21.6107 18585.0 -13760.3 -36.5161 23124.6
 15 08 2015  22 49  -21.6117 18584.6 -13760.4 -36.5168 23124.4
 15 08 2015  22 50  -21.6128 18584.1 -13760.4 -36.5177 23124.0
 15 08 2015  22 51  -21.6138 18583.6 -13760.5 -36.5187 23123.6
 15 08 2015  22 52  -21.6147 18583.1 -13760.7 -36.5196 23123.3
 15 08 2015  22 53  -21.6152 18582.7 -13760.8 -36.5204 23123.1
 15 08 2015  22 54  -21.6156 18582.0 -13760.9 -36.5217 23122.6
 15 08 2015  22 55  -21.6169 18581.2 -13761.1 -36.5234 23122.0
 15 08 2015  22 56  -21.6178 18580.3 -13761.3 -36.5250 23121.4
 15 08 2015  22 57  -21.6193 18579.3 -13761.5 -36.5269 23120.8
 15 08 2015  22 58  -21.6213 18578.2 -13761.7 -36.5289 23120.0
 15 08 2015  22 59  -21.6238 18577.0 -13761.9 -36.5310 23119.1
 15 08 2015  23 00  -21.6269 18575.7 -13762.0 -36.5333 23118.2
 15 08 2015  23 01  -21.6302 18574.2 -13762.2 -36.5358 23117.0
 15 08 2015  23 02  -21.6327 18572.8 -13762.4 -36.5383 23116.1
 15 08 2015  23 03  -21.6352 18571.6 -13762.6 -36.5404 23115.2
 15 08 2015  23 04  -21.6380 18570.3 -13762.7 -36.5426 23114.3
 15 08 2015  23 05  -21.6397 18569.4 -13762.9 -36.5444 23113.6
 15 08 2015  23 06  -21.6411 18568.6 -13763.0 -36.5457 23113.0
 15 08 2015  23 07  -21.6432 18568.1 -13763.1 -36.5465 23112.7
 15 08 2015  23 08  -21.6443 18567.7 -13763.0 -36.5471 23112.3
 15 08 2015  23 09  -21.6449 18567.3 -13763.1 -36.5478 23112.1
 15 08 2015  23 10  -21.6451 18567.2 -13763.1 -36.5479 23112.0
 15 08 2015  23 11  -21.6450 18567.5 -13763.0 -36.5474 23112.1
 15 08 2015  23 12  -21.6450 18568.0 -13762.9 -36.5464 23112.5
 15 08 2015  23 13  -21.6451 18568.4 -13762.7 -36.5454 23112.7
 15 08 2015  23 14  -21.6452 18568.6 -13762.5 -36.5447 23112.8
 15 08 2015  23 15  -21.6451 18568.8 -13762.4 -36.5441 23112.9
 15 08 2015  23 16  -21.6447 18568.8 -13762.3 -36.5439 23112.8
 15 08 2015  23 17  -21.6446 18569.0 -13762.2 -36.5435 23112.9
 15 08 2015  23 18  -21.6447 18569.2 -13762.1 -36.5429 23113.0
 15 08 2015  23 19  -21.6445 18569.7 -13762.0 -36.5421 23113.3
 15 08 2015  23 20  -21.6442 18569.8 -13761.9 -36.5416 23113.4
 15 08 2015  23 21  -21.6438 18570.2 -13761.8 -36.5409 23113.7
 15 08 2015  23 22  -21.6433 18570.6 -13761.7 -36.5403 23113.9
 15 08 2015  23 23  -21.6428 18570.8 -13761.7 -36.5398 23114.0
 15 08 2015  23 24  -21.6423 18570.9 -13761.6 -36.5395 23114.1
 15 08 2015  23 25  -21.6415 18571.2 -13761.6 -36.5391 23114.3
 15 08 2015  23 26  -21.6408 18571.2 -13761.6 -36.5390 23114.3
 15 08 2015  23 27  -21.6411 18571.2 -13761.6 -36.5389 23114.3
 15 08 2015  23 28  -21.6419 18571.0 -13761.6 -36.5392 23114.1
 15 08 2015  23 29  -21.6426 18571.0 -13761.6 -36.5393 23114.1
 15 08 2015  23 30  -21.6432 18571.0 -13761.6 -36.5393 23114.1
 15 08 2015  23 31  -21.6440 18571.0 -13761.5 -36.5392 23114.1
 15 08 2015  23 32  -21.6451 18570.8 -13761.5 -36.5394 23114.0
 15 08 2015  23 33  -21.6462 18570.8 -13761.5 -36.5393 23113.9
 15 08 2015  23 34  -21.6474 18570.8 -13761.5 -36.5394 23113.9
 15 08 2015  23 35  -21.6483 18570.7 -13761.4 -36.5395 23113.8
 15 08 2015  23 36  -21.6485 18570.6 -13761.4 -36.5396 23113.7
 15 08 2015  23 37  -21.6484 18570.4 -13761.5 -36.5400 23113.6
 15 08 2015  23 38  -21.6484 18570.1 -13761.5 -36.5404 23113.4
 15 08 2015  23 39  -21.6486 18569.8 -13761.6 -36.5412 23113.2
 15 08 2015  23 40  -21.6480 18569.5 -13761.7 -36.5417 23113.0
 15 08 2015  23 41  -21.6477 18569.1 -13761.8 -36.5426 23112.7
 15 08 2015  23 42  -21.6473 18568.6 -13761.9 -36.5435 23112.4
 15 08 2015  23 43  -21.6471 18568.2 -13762.1 -36.5444 23112.2
 15 08 2015  23 44  -21.6473 18568.0 -13762.2 -36.5448 23112.1
 15 08 2015  23 45  -21.6475 18567.6 -13762.3 -36.5456 23111.8
 15 08 2015  23 46  -21.6474 18567.2 -13762.4 -36.5465 23111.6
 15 08 2015  23 47  -21.6477 18566.8 -13762.5 -36.5473 23111.3
 15 08 2015  23 48  -21.6483 18566.3 -13762.6 -36.5483 23111.0
 15 08 2015  23 49  -21.6497 18565.7 -13762.7 -36.5493 23110.5
 15 08 2015  23 50  -21.6516 18565.1 -13762.7 -36.5503 23110.1
 15 08 2015  23 51  -21.6535 18564.2 -13762.9 -36.5520 23109.4
 15 08 2015  23 52  -21.6554 18563.4 -13763.0 -36.5533 23108.9
 15 08 2015  23 53  -21.6573 18562.9 -13763.1 -36.5542 23108.5
 15 08 2015  23 54  -21.6584 18562.8 -13763.1 -36.5543 23108.5
 15 08 2015  23 55  -21.6596 18562.7 -13763.0 -36.5544 23108.3
 15 08 2015  23 56  -21.6608 18562.3 -13763.0 -36.5550 23107.9
 15 08 2015  23 57  -21.6613 18562.1 -13763.0 -36.5552 23107.8
 15 08 2015  23 58  -21.6629 18561.9 -13762.9 -36.5554 23107.6
 15 08 2015  23 59  -21.6664 18561.3 -13762.8 -36.5560 23107.1
