SAO MARTINHO DA SERRA EMBRACE-06 <227> 1 Min. Reported data

 DD MM YYYY  HH MM   D(Deg)  H(nT)   Z(nT)   I(Deg)   F(nT)

 15 08 2015  00 00  -14.4914 17955.8 -13544.6 -37.0283 22491.5
 15 08 2015  00 01  -14.4910 17956.6 -13544.9 -37.0276 22492.3
 15 08 2015  00 02  -14.4905 17957.3 -13545.2 -37.0272 22493.0
 15 08 2015  00 03  -14.4903 17957.7 -13545.2 -37.0266 22493.3
 15 08 2015  00 04  -14.4906 17957.7 -13545.1 -37.0262 22493.3
 15 08 2015  00 05  -14.4908 17957.8 -13544.9 -37.0259 22493.2
 15 08 2015  00 06  -14.4909 17957.8 -13544.7 -37.0254 22493.2
 15 08 2015  00 07  -14.4906 17957.9 -13544.6 -37.0251 22493.1
 15 08 2015  00 08  -14.4904 17957.8 -13544.9 -37.0258 22493.3
 15 08 2015  00 09  -14.4904 17957.7 -13544.6 -37.0253 22493.0
 15 08 2015  00 10  -14.4907 17957.4 -13544.5 -37.0256 22492.6
 15 08 2015  00 11  -14.4903 17957.3 -13544.6 -37.0259 22492.7
 15 08 2015  00 12  -14.4897 17957.5 -13544.8 -37.0260 22493.0
 15 08 2015  00 13  -14.4896 17958.3 -13544.8 -37.0249 22493.6
 15 08 2015  00 14  -14.4897 17958.0 -13544.7 -37.0251 22493.3
 15 08 2015  00 15  -14.4897 17958.3 -13544.8 -37.0248 22493.7
 15 08 2015  00 16  -14.4900 17958.1 -13545.4 -37.0263 22493.8
 15 08 2015  00 17  -14.4903 17958.3 -13544.6 -37.0244 22493.5
 15 08 2015  00 18  -14.4902 17958.4 -13544.5 -37.0241 22493.5
 15 08 2015  00 19  -14.4898 17958.6 -13545.0 -37.0248 22493.9
 15 08 2015  00 20  -14.4892 17958.9 -13544.4 -37.0232 22493.9
 15 08 2015  00 21  -14.4891 17958.7 -13544.7 -37.0240 22493.9
 15 08 2015  00 22  -14.4886 17959.0 -13545.0 -37.0242 22494.3
 15 08 2015  00 23  -14.4883 17959.3 -13544.7 -37.0232 22494.4
 15 08 2015  00 24  -14.4880 17958.6 -13544.5 -37.0237 22493.7
 15 08 2015  00 25  -14.4876 17959.1 -13544.3 -37.0227 22494.0
 15 08 2015  00 26  -14.4867 17959.3 -13544.9 -37.0235 22494.4
 15 08 2015  00 27  -14.4873 17959.2 -13544.6 -37.0229 22494.2
 15 08 2015  00 28  -14.4875 17959.5 -13544.8 -37.0229 22494.6
 15 08 2015  00 29  -14.4869 17959.7 -13545.1 -37.0233 22494.8
 15 08 2015  00 30  -14.4872 17959.5 -13544.5 -37.0225 22494.4
 15 08 2015  00 31  -14.4870 17959.7 -13544.4 -37.0218 22494.5
 15 08 2015  00 32  -14.4857 17959.6 -13543.8 -37.0209 22494.1
 15 08 2015  00 33  -14.4851 17959.9 -13544.2 -37.0211 22494.5
 15 08 2015  00 34  -14.4851 17959.6 -13544.4 -37.0221 22494.5
 15 08 2015  00 35  -14.4855 17959.5 -13544.1 -37.0215 22494.1
 15 08 2015  00 36  -14.4852 17959.2 -13544.2 -37.0223 22494.0
 15 08 2015  00 37  -14.4854 17959.0 -13544.7 -37.0235 22494.1
 15 08 2015  00 38  -14.4857 17959.0 -13544.5 -37.0233 22493.9
 15 08 2015  00 39  -14.4862 17959.4 -13544.8 -37.0232 22494.5
 15 08 2015  00 40  -14.4866 17959.4 -13544.6 -37.0228 22494.4
 15 08 2015  00 41  -14.4877 17959.2 -13544.7 -37.0233 22494.3
 15 08 2015  00 42  -14.4884 17959.3 -13544.6 -37.0230 22494.3
 15 08 2015  00 43  -14.4882 17959.3 -13544.7 -37.0231 22494.3
 15 08 2015  00 44  -14.4879 17959.1 -13544.8 -37.0236 22494.3
 15 08 2015  00 45  -14.4875 17959.2 -13545.0 -37.0239 22494.4
 15 08 2015  00 46  -14.4874 17959.2 -13544.7 -37.0231 22494.2
 15 08 2015  00 47  -14.4871 17959.1 -13544.8 -37.0237 22494.2
 15 08 2015  00 48  -14.4870 17959.2 -13544.6 -37.0231 22494.2
 15 08 2015  00 49  -14.4867 17959.4 -13545.1 -37.0237 22494.7
 15 08 2015  00 50  -14.4862 17959.4 -13544.6 -37.0228 22494.4
 15 08 2015  00 51  -14.4863 17959.4 -13544.7 -37.0230 22494.4
 15 08 2015  00 52  -14.4859 17959.4 -13544.8 -37.0232 22494.5
 15 08 2015  00 53  -14.4854 17959.2 -13544.9 -37.0238 22494.4
 15 08 2015  00 54  -14.4854 17959.0 -13544.6 -37.0234 22494.0
 15 08 2015  00 55  -14.4851 17959.0 -13545.2 -37.0245 22494.4
 15 08 2015  00 56  -14.4854 17958.9 -13544.7 -37.0238 22494.0
 15 08 2015  00 57  -14.4853 17958.8 -13545.1 -37.0246 22494.2
 15 08 2015  00 58  -14.4852 17958.6 -13545.5 -37.0257 22494.3
 15 08 2015  00 59  -14.4851 17958.6 -13544.8 -37.0244 22493.9
 15 08 2015  01 00  -14.4849 17958.7 -13544.9 -37.0244 22494.0
 15 08 2015  01 01  -14.4849 17958.3 -13545.4 -37.0259 22494.0
 15 08 2015  01 02  -14.4857 17958.2 -13544.9 -37.0251 22493.5
 15 08 2015  01 03  -14.4859 17958.3 -13545.2 -37.0257 22493.9
 15 08 2015  01 04  -14.4862 17957.8 -13545.0 -37.0260 22493.3
 15 08 2015  01 05  -14.4870 17957.7 -13544.9 -37.0260 22493.2
 15 08 2015  01 06  -14.4869 17957.7 -13545.4 -37.0270 22493.5
 15 08 2015  01 07  -14.4866 17957.8 -13544.8 -37.0257 22493.2
 15 08 2015  01 08  -14.4866 17957.8 -13545.4 -37.0267 22493.6
 15 08 2015  01 09  -14.4868 17957.8 -13544.6 -37.0253 22493.0
 15 08 2015  01 10  -14.4872 17957.6 -13544.6 -37.0254 22492.9
 15 08 2015  01 11  -14.4875 17957.2 -13544.7 -37.0263 22492.7
 15 08 2015  01 12  -14.4875 17957.0 -13544.5 -37.0261 22492.4
 15 08 2015  01 13  -14.4873 17957.4 -13545.0 -37.0266 22493.0
 15 08 2015  01 14  -14.4879 17957.0 -13544.8 -37.0268 22492.6
 15 08 2015  01 15  -14.4884 17956.9 -13544.9 -37.0274 22492.5
 15 08 2015  01 16  -14.4886 17956.8 -13544.8 -37.0272 22492.4
 15 08 2015  01 17  -14.4887 17956.8 -13545.5 -37.0285 22492.8
 15 08 2015  01 18  -14.4892 17956.7 -13544.4 -37.0266 22492.1
 15 08 2015  01 19  -14.4896 17956.3 -13545.4 -37.0291 22492.4
 15 08 2015  01 20  -14.4901 17956.4 -13545.5 -37.0292 22492.4
 15 08 2015  01 21  -14.4907 17956.1 -13544.8 -37.0281 22491.9
 15 08 2015  01 22  -14.4914 17955.8 -13545.0 -37.0291 22491.7
 15 08 2015  01 23  -14.4923 17955.3 -13545.0 -37.0297 22491.3
 15 08 2015  01 24  -14.4925 17955.0 -13545.0 -37.0303 22491.1
 15 08 2015  01 25  -14.4927 17954.9 -13544.9 -37.0303 22491.0
 15 08 2015  01 26  -14.4929 17954.6 -13544.9 -37.0307 22490.7
 15 08 2015  01 27  -14.4930 17954.1 -13545.0 -37.0317 22490.4
 15 08 2015  01 28  -14.4930 17954.0 -13545.0 -37.0318 22490.3
 15 08 2015  01 29  -14.4931 17953.7 -13545.3 -37.0328 22490.2
 15 08 2015  01 30  -14.4935 17953.7 -13545.4 -37.0331 22490.3
 15 08 2015  01 31  -14.4936 17953.8 -13545.2 -37.0326 22490.2
 15 08 2015  01 32  -14.4939 17953.6 -13545.4 -37.0332 22490.2
 15 08 2015  01 33  -14.4940 17953.4 -13545.5 -37.0338 22490.2
 15 08 2015  01 34  -14.4945 17953.2 -13545.4 -37.0340 22489.9
 15 08 2015  01 35  -14.4943 17953.4 -13545.5 -37.0338 22490.1
 15 08 2015  01 36  -14.4940 17953.4 -13545.5 -37.0338 22490.1
 15 08 2015  01 37  -14.4943 17953.2 -13545.8 -37.0346 22490.2
 15 08 2015  01 38  -14.4945 17953.1 -13545.6 -37.0344 22489.9
 15 08 2015  01 39  -14.4945 17953.2 -13545.8 -37.0347 22490.1
 15 08 2015  01 40  -14.4947 17953.1 -13545.6 -37.0345 22489.9
 15 08 2015  01 41  -14.4946 17952.6 -13545.7 -37.0354 22489.6
 15 08 2015  01 42  -14.4944 17952.2 -13545.6 -37.0358 22489.2
 15 08 2015  01 43  -14.4946 17952.0 -13545.5 -37.0360 22489.0
 15 08 2015  01 44  -14.4954 17951.4 -13546.3 -37.0385 22489.0
 15 08 2015  01 45  -14.4957 17951.0 -13545.6 -37.0376 22488.2
 15 08 2015  01 46  -14.4959 17950.3 -13545.6 -37.0387 22487.7
 15 08 2015  01 47  -14.4956 17949.9 -13546.3 -37.0407 22487.8
 15 08 2015  01 48  -14.4959 17949.4 -13546.4 -37.0418 22487.4
 15 08 2015  01 49  -14.4962 17948.8 -13545.8 -37.0414 22486.7
 15 08 2015  01 50  -14.4962 17948.9 -13546.0 -37.0417 22486.8
 15 08 2015  01 51  -14.4965 17948.6 -13546.0 -37.0422 22486.6
 15 08 2015  01 52  -14.4965 17948.4 -13546.3 -37.0431 22486.6
 15 08 2015  01 53  -14.4971 17947.9 -13546.1 -37.0434 22486.1
 15 08 2015  01 54  -14.4973 17947.7 -13546.3 -37.0442 22486.0
 15 08 2015  01 55  -14.4975 17947.4 -13546.3 -37.0447 22485.8
 15 08 2015  01 56  -14.4975 17947.1 -13546.4 -37.0452 22485.6
 15 08 2015  01 57  -14.4970 17947.0 -13546.3 -37.0452 22485.5
 15 08 2015  01 58  -14.4968 17946.8 -13546.3 -37.0455 22485.4
 15 08 2015  01 59  -14.4969 17946.8 -13546.5 -37.0460 22485.4
 15 08 2015  02 00  -14.4963 17947.2 -13546.8 -37.0460 22486.0
 15 08 2015  02 01  -14.4965 17947.4 -13546.7 -37.0454 22486.0
 15 08 2015  02 02  -14.4963 17947.9 -13546.4 -37.0440 22486.2
 15 08 2015  02 03  -14.4958 17948.2 -13547.2 -37.0451 22487.0
 15 08 2015  02 04  -14.4957 17948.4 -13546.8 -37.0441 22486.9
 15 08 2015  02 05  -14.4948 17948.9 -13546.8 -37.0433 22487.3
 15 08 2015  02 06  -14.4940 17949.2 -13547.5 -37.0442 22487.9
 15 08 2015  02 07  -14.4936 17949.6 -13547.2 -37.0432 22488.1
 15 08 2015  02 08  -14.4933 17949.6 -13546.4 -37.0414 22487.6
 15 08 2015  02 09  -14.4928 17949.7 -13546.7 -37.0420 22487.8
 15 08 2015  02 10  -14.4926 17949.7 -13546.2 -37.0409 22487.5
 15 08 2015  02 11  -14.4925 17949.5 -13546.8 -37.0425 22487.8
 15 08 2015  02 12  -14.4924 17949.7 -13547.1 -37.0427 22488.2
 15 08 2015  02 13  -14.4926 17949.7 -13546.2 -37.0409 22487.5
 15 08 2015  02 14  -14.4927 17949.4 -13546.5 -37.0419 22487.5
 15 08 2015  02 15  -14.4926 17949.4 -13546.3 -37.0416 22487.4
 15 08 2015  02 16  -14.4923 17949.4 -13546.7 -37.0423 22487.6
 15 08 2015  02 17  -14.4930 17949.5 -13546.2 -37.0412 22487.4
 15 08 2015  02 18  -14.4938 17949.5 -13546.2 -37.0413 22487.4
 15 08 2015  02 19  -14.4946 17949.3 -13546.2 -37.0415 22487.2
 15 08 2015  02 20  -14.4952 17949.2 -13546.2 -37.0418 22487.2
 15 08 2015  02 21  -14.4955 17949.1 -13546.3 -37.0420 22487.1
 15 08 2015  02 22  -14.4957 17949.1 -13546.4 -37.0422 22487.2
 15 08 2015  02 23  -14.4960 17949.1 -13546.0 -37.0414 22487.0
 15 08 2015  02 24  -14.4964 17949.2 -13546.1 -37.0414 22487.1
 15 08 2015  02 25  -14.4963 17949.3 -13546.4 -37.0419 22487.3
 15 08 2015  02 26  -14.4963 17949.5 -13546.4 -37.0415 22487.6
 15 08 2015  02 27  -14.4962 17949.7 -13546.3 -37.0410 22487.7
 15 08 2015  02 28  -14.4959 17950.0 -13546.1 -37.0402 22487.7
 15 08 2015  02 29  -14.4956 17950.2 -13546.3 -37.0402 22488.0
 15 08 2015  02 30  -14.4958 17950.3 -13546.4 -37.0404 22488.2
 15 08 2015  02 31  -14.4959 17950.6 -13546.4 -37.0399 22488.4
 15 08 2015  02 32  -14.4956 17950.8 -13546.1 -37.0391 22488.4
 15 08 2015  02 33  -14.4952 17951.0 -13546.3 -37.0391 22488.7
 15 08 2015  02 34  -14.4952 17951.0 -13546.1 -37.0387 22488.6
 15 08 2015  02 35  -14.4951 17951.2 -13546.5 -37.0390 22489.0
 15 08 2015  02 36  -14.4951 17951.3 -13545.9 -37.0377 22488.6
 15 08 2015  02 37  -14.4946 17951.5 -13546.1 -37.0379 22488.9
 15 08 2015  02 38  -14.4945 17951.5 -13545.4 -37.0365 22488.5
 15 08 2015  02 39  -14.4939 17951.6 -13546.2 -37.0380 22489.1
 15 08 2015  02 40  -14.4936 17951.6 -13545.9 -37.0374 22488.9
 15 08 2015  02 41  -14.4930 17951.7 -13545.9 -37.0372 22489.0
 15 08 2015  02 42  -14.4924 17952.0 -13545.7 -37.0362 22489.1
 15 08 2015  02 43  -14.4919 17952.4 -13546.0 -37.0363 22489.6
 15 08 2015  02 44  -14.4919 17953.0 -13546.1 -37.0356 22490.1
 15 08 2015  02 45  -14.4918 17953.4 -13546.2 -37.0352 22490.5
 15 08 2015  02 46  -14.4917 17953.6 -13546.1 -37.0347 22490.7
 15 08 2015  02 47  -14.4918 17953.7 -13546.0 -37.0344 22490.7
 15 08 2015  02 48  -14.4922 17953.7 -13545.3 -37.0330 22490.2
 15 08 2015  02 49  -14.4921 17953.9 -13545.5 -37.0330 22490.6
 15 08 2015  02 50  -14.4920 17954.2 -13545.3 -37.0321 22490.6
 15 08 2015  02 51  -14.4919 17954.4 -13546.0 -37.0333 22491.2
 15 08 2015  02 52  -14.4919 17954.7 -13546.1 -37.0329 22491.6
 15 08 2015  02 53  -14.4915 17955.2 -13546.4 -37.0327 22492.1
 15 08 2015  02 54  -14.4911 17955.8 -13545.8 -37.0307 22492.2
 15 08 2015  02 55  -14.4903 17956.8 -13545.7 -37.0289 22493.0
 15 08 2015  02 56  -14.4894 17958.0 -13546.4 -37.0286 22494.3
 15 08 2015  02 57  -14.4888 17959.2 -13546.0 -37.0258 22495.0
 15 08 2015  02 58  -14.4886 17960.0 -13545.6 -37.0239 22495.5
 15 08 2015  02 59  -14.4881 17960.9 -13546.0 -37.0233 22496.4
 15 08 2015  03 00  -14.4880 17961.3 -13545.9 -37.0223 22496.7
 15 08 2015  03 01  -14.4883 17961.2 -13545.5 -37.0219 22496.3
 15 08 2015  03 02  -14.4888 17960.6 -13545.3 -37.0223 22495.8
 15 08 2015  03 03  -14.4893 17960.1 -13545.2 -37.0229 22495.2
 15 08 2015  03 04  -14.4897 17959.8 -13545.0 -37.0230 22494.9
 15 08 2015  03 05  -14.4901 17959.8 -13545.2 -37.0233 22495.0
 15 08 2015  03 06  -14.4905 17960.0 -13544.8 -37.0224 22494.9
 15 08 2015  03 07  -14.4906 17960.0 -13545.2 -37.0229 22495.2
 15 08 2015  03 08  -14.4905 17960.2 -13545.7 -37.0237 22495.6
 15 08 2015  03 09  -14.4908 17960.1 -13545.5 -37.0235 22495.5
 15 08 2015  03 10  -14.4910 17960.2 -13545.4 -37.0230 22495.5
 15 08 2015  03 11  -14.4911 17960.1 -13545.8 -37.0240 22495.6
 15 08 2015  03 12  -14.4909 17960.1 -13545.2 -37.0230 22495.3
 15 08 2015  03 13  -14.4907 17960.0 -13545.2 -37.0230 22495.2
 15 08 2015  03 14  -14.4906 17959.9 -13545.5 -37.0239 22495.3
 15 08 2015  03 15  -14.4903 17959.9 -13545.3 -37.0234 22495.2
 15 08 2015  03 16  -14.4903 17960.0 -13545.2 -37.0230 22495.3
 15 08 2015  03 17  -14.4905 17960.1 -13545.6 -37.0236 22495.5
 15 08 2015  03 18  -14.4912 17960.1 -13545.4 -37.0234 22495.4
 15 08 2015  03 19  -14.4920 17959.8 -13545.3 -37.0235 22495.1
 15 08 2015  03 20  -14.4924 17959.6 -13545.4 -37.0239 22495.0
 15 08 2015  03 21  -14.4927 17959.3 -13545.5 -37.0246 22494.8
 15 08 2015  03 22  -14.4929 17958.7 -13545.5 -37.0256 22494.3
 15 08 2015  03 23  -14.4933 17957.8 -13544.9 -37.0257 22493.3
 15 08 2015  03 24  -14.4934 17956.9 -13544.7 -37.0268 22492.4
 15 08 2015  03 25  -14.4933 17956.4 -13545.4 -37.0289 22492.4
 15 08 2015  03 26  -14.4930 17956.7 -13545.7 -37.0292 22492.9
 15 08 2015  03 27  -14.4929 17957.0 -13545.4 -37.0282 22492.9
 15 08 2015  03 28  -14.4927 17957.0 -13546.0 -37.0293 22493.3
 15 08 2015  03 29  -14.4930 17957.2 -13545.7 -37.0284 22493.2
 15 08 2015  03 30  -14.4931 17957.5 -13545.8 -37.0281 22493.6
 15 08 2015  03 31  -14.4929 17957.9 -13546.1 -37.0280 22494.1
 15 08 2015  03 32  -14.4929 17958.1 -13546.0 -37.0276 22494.1
 15 08 2015  03 33  -14.4929 17958.0 -13545.8 -37.0272 22494.0
 15 08 2015  03 34  -14.4927 17958.0 -13545.6 -37.0269 22493.8
 15 08 2015  03 35  -14.4928 17957.6 -13545.9 -37.0281 22493.7
 15 08 2015  03 36  -14.4934 17957.0 -13545.3 -37.0278 22492.9
 15 08 2015  03 37  -14.4943 17956.1 -13545.6 -37.0297 22492.3
 15 08 2015  03 38  -14.4954 17955.3 -13545.3 -37.0305 22491.5
 15 08 2015  03 39  -14.4969 17954.3 -13545.0 -37.0314 22490.5
 15 08 2015  03 40  -14.4975 17953.5 -13545.2 -37.0330 22490.0
 15 08 2015  03 41  -14.4976 17953.2 -13546.1 -37.0354 22490.3
 15 08 2015  03 42  -14.4975 17953.1 -13545.8 -37.0349 22490.1
 15 08 2015  03 43  -14.4971 17953.2 -13545.6 -37.0343 22490.1
 15 08 2015  03 44  -14.4964 17953.5 -13546.1 -37.0347 22490.6
 15 08 2015  03 45  -14.4957 17953.8 -13546.2 -37.0345 22490.9
 15 08 2015  03 46  -14.4948 17954.4 -13546.2 -37.0337 22491.3
 15 08 2015  03 47  -14.4941 17954.7 -13546.7 -37.0344 22491.9
 15 08 2015  03 48  -14.4937 17955.3 -13546.7 -37.0333 22492.3
 15 08 2015  03 49  -14.4939 17955.4 -13546.2 -37.0321 22492.1
 15 08 2015  03 50  -14.4938 17955.6 -13546.5 -37.0324 22492.4
 15 08 2015  03 51  -14.4940 17955.7 -13546.1 -37.0315 22492.3
 15 08 2015  03 52  -14.4944 17955.9 -13546.3 -37.0316 22492.6
 15 08 2015  03 53  -14.4949 17956.1 -13546.2 -37.0312 22492.7
 15 08 2015  03 54  -14.4952 17956.3 -13546.3 -37.0311 22492.9
 15 08 2015  03 55  -14.4954 17956.4 -13546.0 -37.0301 22492.8
 15 08 2015  03 56  -14.4955 17956.5 -13546.1 -37.0304 22493.0
 15 08 2015  03 57  -14.4955 17956.5 -13546.1 -37.0301 22493.0
 15 08 2015  03 58  -14.4956 17956.5 -13545.9 -37.0298 22492.9
 15 08 2015  03 59  -14.4958 17956.6 -13546.0 -37.0298 22492.9
 15 08 2015  04 00  -14.4961 17956.7 -13546.0 -37.0297 22493.0
 15 08 2015  04 01  -14.4959 17956.8 -13545.9 -37.0293 22493.1
 15 08 2015  04 02  -14.4955 17956.9 -13546.2 -37.0297 22493.3
 15 08 2015  04 03  -14.4952 17957.0 -13546.1 -37.0295 22493.3
 15 08 2015  04 04  -14.4948 17957.0 -13546.3 -37.0300 22493.5
 15 08 2015  04 05  -14.4947 17957.1 -13545.6 -37.0284 22493.2
 15 08 2015  04 06  -14.4947 17957.3 -13545.3 -37.0275 22493.1
 15 08 2015  04 07  -14.4945 17957.4 -13545.7 -37.0281 22493.4
 15 08 2015  04 08  -14.4943 17957.6 -13545.7 -37.0277 22493.6
 15 08 2015  04 09  -14.4941 17957.9 -13545.7 -37.0274 22493.8
 15 08 2015  04 10  -14.4940 17958.2 -13545.6 -37.0266 22494.0
 15 08 2015  04 11  -14.4940 17958.4 -13545.6 -37.0264 22494.2
 15 08 2015  04 12  -14.4942 17958.2 -13545.9 -37.0271 22494.2
 15 08 2015  04 13  -14.4946 17957.9 -13545.4 -37.0268 22493.6
 15 08 2015  04 14  -14.4945 17957.6 -13545.8 -37.0281 22493.6
 15 08 2015  04 15  -14.4947 17957.4 -13545.9 -37.0284 22493.6
 15 08 2015  04 16  -14.4951 17957.6 -13545.3 -37.0270 22493.4
 15 08 2015  04 17  -14.4954 17957.7 -13546.0 -37.0281 22493.8
 15 08 2015  04 18  -14.4949 17958.1 -13545.5 -37.0266 22493.9
 15 08 2015  04 19  -14.4948 17958.0 -13545.6 -37.0269 22493.9
 15 08 2015  04 20  -14.4946 17958.0 -13545.5 -37.0267 22493.7
 15 08 2015  04 21  -14.4947 17957.5 -13545.5 -37.0273 22493.4
 15 08 2015  04 22  -14.4945 17957.4 -13545.4 -37.0274 22493.2
 15 08 2015  04 23  -14.4940 17957.4 -13545.8 -37.0283 22493.5
 15 08 2015  04 24  -14.4937 17957.5 -13545.7 -37.0280 22493.5
 15 08 2015  04 25  -14.4936 17957.8 -13545.4 -37.0269 22493.5
 15 08 2015  04 26  -14.4934 17958.1 -13545.7 -37.0271 22494.0
 15 08 2015  04 27  -14.4933 17958.1 -13545.6 -37.0268 22494.0
 15 08 2015  04 28  -14.4930 17958.1 -13545.9 -37.0273 22494.1
 15 08 2015  04 29  -14.4927 17958.2 -13545.8 -37.0270 22494.1
 15 08 2015  04 30  -14.4926 17958.1 -13546.1 -37.0280 22494.2
 15 08 2015  04 31  -14.4930 17957.9 -13545.9 -37.0276 22494.0
 15 08 2015  04 32  -14.4927 17958.3 -13545.9 -37.0271 22494.2
 15 08 2015  04 33  -14.4929 17958.5 -13546.2 -37.0273 22494.6
 15 08 2015  04 34  -14.4934 17958.8 -13545.2 -37.0249 22494.2
 15 08 2015  04 35  -14.4938 17958.8 -13545.9 -37.0263 22494.7
 15 08 2015  04 36  -14.4943 17959.1 -13545.8 -37.0256 22494.8
 15 08 2015  04 37  -14.4950 17958.9 -13545.9 -37.0262 22494.7
 15 08 2015  04 38  -14.4952 17959.1 -13545.6 -37.0253 22494.7
 15 08 2015  04 39  -14.4954 17959.0 -13545.8 -37.0257 22494.8
 15 08 2015  04 40  -14.4955 17959.2 -13545.5 -37.0249 22494.7
 15 08 2015  04 41  -14.4956 17959.1 -13545.5 -37.0250 22494.7
 15 08 2015  04 42  -14.4955 17959.3 -13546.3 -37.0264 22495.3
 15 08 2015  04 43  -14.4956 17959.2 -13546.1 -37.0261 22495.1
 15 08 2015  04 44  -14.4955 17959.2 -13545.6 -37.0251 22494.8
 15 08 2015  04 45  -14.4955 17959.2 -13545.3 -37.0245 22494.6
 15 08 2015  04 46  -14.4956 17959.2 -13545.3 -37.0246 22494.6
 15 08 2015  04 47  -14.4961 17959.0 -13545.8 -37.0257 22494.7
 15 08 2015  04 48  -14.4966 17959.0 -13545.6 -37.0254 22494.7
 15 08 2015  04 49  -14.4971 17959.0 -13545.4 -37.0249 22494.5
 15 08 2015  04 50  -14.4977 17958.9 -13545.6 -37.0256 22494.6
 15 08 2015  04 51  -14.4980 17959.0 -13545.0 -37.0243 22494.3
 15 08 2015  04 52  -14.4979 17958.9 -13545.7 -37.0257 22494.6
 15 08 2015  04 53  -14.4981 17958.7 -13546.0 -37.0266 22494.7
 15 08 2015  04 54  -14.4981 17958.6 -13546.4 -37.0276 22494.8
 15 08 2015  04 55  -14.4987 17958.5 -13545.0 -37.0251 22493.9
 15 08 2015  04 56  -14.4987 17958.4 -13545.4 -37.0259 22494.0
 15 08 2015  04 57  -14.4986 17958.3 -13545.7 -37.0266 22494.1
 15 08 2015  04 58  -14.4986 17958.1 -13545.6 -37.0268 22494.0
 15 08 2015  04 59  -14.4985 17958.0 -13545.5 -37.0266 22493.8
 15 08 2015  05 00  -14.4984 17958.0 -13545.8 -37.0274 22493.9
 15 08 2015  05 01  -14.4983 17958.0 -13545.9 -37.0275 22494.0
 15 08 2015  05 02  -14.4983 17957.9 -13545.3 -37.0264 22493.6
 15 08 2015  05 03  -14.4980 17957.9 -13546.2 -37.0283 22494.1
 15 08 2015  05 04  -14.4979 17957.9 -13546.5 -37.0288 22494.3
 15 08 2015  05 05  -14.4981 17958.1 -13545.8 -37.0271 22494.0
 15 08 2015  05 06  -14.4982 17958.0 -13546.1 -37.0280 22494.2
 15 08 2015  05 07  -14.4982 17958.1 -13546.0 -37.0276 22494.2
 15 08 2015  05 08  -14.4980 17958.4 -13545.5 -37.0260 22494.1
 15 08 2015  05 09  -14.4979 17958.5 -13545.9 -37.0269 22494.4
 15 08 2015  05 10  -14.4981 17958.4 -13545.9 -37.0269 22494.3
 15 08 2015  05 11  -14.4983 17958.4 -13546.1 -37.0275 22494.5
 15 08 2015  05 12  -14.4983 17958.5 -13546.4 -37.0277 22494.7
 15 08 2015  05 13  -14.4984 17958.6 -13545.5 -37.0258 22494.3
 15 08 2015  05 14  -14.4982 17958.8 -13545.9 -37.0264 22494.7
 15 08 2015  05 15  -14.4983 17958.8 -13546.5 -37.0275 22495.0
 15 08 2015  05 16  -14.4988 17958.6 -13545.1 -37.0249 22494.0
 15 08 2015  05 17  -14.4990 17958.5 -13545.3 -37.0255 22494.1
 15 08 2015  05 18  -14.4991 17958.5 -13545.6 -37.0261 22494.2
 15 08 2015  05 19  -14.4990 17958.5 -13545.7 -37.0263 22494.3
 15 08 2015  05 20  -14.4990 17958.4 -13545.6 -37.0264 22494.2
 15 08 2015  05 21  -14.4989 17958.2 -13545.8 -37.0270 22494.1
 15 08 2015  05 22  -14.4987 17958.2 -13545.7 -37.0269 22494.1
 15 08 2015  05 23  -14.4987 17958.1 -13545.9 -37.0274 22494.1
 15 08 2015  05 24  -14.4986 17958.0 -13545.7 -37.0270 22493.9
 15 08 2015  05 25  -14.4980 17958.3 -13545.7 -37.0267 22494.1
 15 08 2015  05 26  -14.4977 17958.5 -13545.8 -37.0266 22494.4
 15 08 2015  05 27  -14.4974 17958.7 -13545.8 -37.0264 22494.5
 15 08 2015  05 28  -14.4969 17958.9 -13546.2 -37.0269 22494.9
 15 08 2015  05 29  -14.4966 17959.0 -13545.6 -37.0253 22494.6
 15 08 2015  05 30  -14.4959 17959.2 -13545.7 -37.0253 22494.9
 15 08 2015  05 31  -14.4954 17959.4 -13545.6 -37.0248 22494.9
 15 08 2015  05 32  -14.4950 17959.5 -13546.2 -37.0258 22495.4
 15 08 2015  05 33  -14.4949 17959.6 -13545.8 -37.0250 22495.2
 15 08 2015  05 34  -14.4947 17959.5 -13546.0 -37.0253 22495.3
 15 08 2015  05 35  -14.4947 17959.6 -13545.9 -37.0252 22495.3
 15 08 2015  05 36  -14.4949 17959.6 -13545.8 -37.0248 22495.2
 15 08 2015  05 37  -14.4952 17959.6 -13545.7 -37.0247 22495.2
 15 08 2015  05 38  -14.4955 17959.6 -13545.9 -37.0251 22495.3
 15 08 2015  05 39  -14.4957 17959.6 -13545.7 -37.0246 22495.2
 15 08 2015  05 40  -14.4958 17959.5 -13545.7 -37.0248 22495.1
 15 08 2015  05 41  -14.4958 17959.4 -13545.9 -37.0253 22495.2
 15 08 2015  05 42  -14.4957 17959.4 -13545.6 -37.0248 22495.0
 15 08 2015  05 43  -14.4957 17959.2 -13545.4 -37.0247 22494.7
 15 08 2015  05 44  -14.4957 17959.3 -13545.7 -37.0251 22494.9
 15 08 2015  05 45  -14.4959 17959.2 -13545.8 -37.0254 22494.9
 15 08 2015  05 46  -14.4961 17959.3 -13545.9 -37.0255 22495.0
 15 08 2015  05 47  -14.4965 17959.2 -13545.8 -37.0256 22494.9
 15 08 2015  05 48  -14.4967 17959.2 -13546.2 -37.0263 22495.1
 15 08 2015  05 49  -14.4972 17959.0 -13546.6 -37.0274 22495.2
 15 08 2015  05 50  -14.4980 17958.8 -13545.5 -37.0255 22494.4
 15 08 2015  05 51  -14.4984 17958.8 -13545.1 -37.0247 22494.1
 15 08 2015  05 52  -14.4984 17958.8 -13545.7 -37.0260 22494.5
 15 08 2015  05 53  -14.4985 17958.7 -13546.0 -37.0267 22494.7
 15 08 2015  05 54  -14.4987 17958.6 -13545.9 -37.0266 22494.5
 15 08 2015  05 55  -14.4987 17958.7 -13545.8 -37.0262 22494.5
 15 08 2015  05 56  -14.4989 17958.5 -13545.7 -37.0263 22494.3
 15 08 2015  05 57  -14.4989 17958.5 -13545.5 -37.0259 22494.2
 15 08 2015  05 58  -14.4988 17958.5 -13545.6 -37.0261 22494.2
 15 08 2015  05 59  -14.4985 17958.5 -13546.0 -37.0269 22494.4
 15 08 2015  06 00  -14.4985 17958.3 -13546.4 -37.0280 22494.5
 15 08 2015  06 01  -14.4987 17958.4 -13545.7 -37.0266 22494.2
 15 08 2015  06 02  -14.4986 17958.4 -13546.5 -37.0282 22494.7
 15 08 2015  06 03  -14.4987 17958.4 -13545.6 -37.0263 22494.1
 15 08 2015  06 04  -14.4984 17958.4 -13545.8 -37.0268 22494.3
 15 08 2015  06 05  -14.4981 17958.5 -13546.0 -37.0269 22494.5
 15 08 2015  06 06  -14.4980 17958.5 -13546.0 -37.0270 22494.5
 15 08 2015  06 07  -14.4978 17958.6 -13545.7 -37.0263 22494.4
 15 08 2015  06 08  -14.4974 17958.7 -13545.5 -37.0256 22494.4
 15 08 2015  06 09  -14.4969 17958.9 -13545.7 -37.0257 22494.6
 15 08 2015  06 10  -14.4965 17959.1 -13546.0 -37.0262 22495.0
 15 08 2015  06 11  -14.4961 17959.2 -13546.0 -37.0260 22495.1
 15 08 2015  06 12  -14.4959 17959.3 -13546.0 -37.0257 22495.1
 15 08 2015  06 13  -14.4956 17959.4 -13546.0 -37.0257 22495.2
 15 08 2015  06 14  -14.4956 17959.4 -13545.5 -37.0247 22494.9
 15 08 2015  06 15  -14.4955 17959.5 -13545.6 -37.0247 22495.0
 15 08 2015  06 16  -14.4956 17959.6 -13545.7 -37.0248 22495.2
 15 08 2015  06 17  -14.4958 17959.5 -13545.6 -37.0246 22495.1
 15 08 2015  06 18  -14.4960 17959.6 -13545.6 -37.0245 22495.1
 15 08 2015  06 19  -14.4960 17959.7 -13545.7 -37.0246 22495.2
 15 08 2015  06 20  -14.4962 17959.6 -13546.1 -37.0254 22495.4
 15 08 2015  06 21  -14.4962 17959.9 -13545.8 -37.0245 22495.5
 15 08 2015  06 22  -14.4960 17960.2 -13545.6 -37.0237 22495.6
 15 08 2015  06 23  -14.4959 17960.2 -13545.9 -37.0242 22495.8
 15 08 2015  06 24  -14.4958 17960.5 -13545.4 -37.0228 22495.7
 15 08 2015  06 25  -14.4958 17960.5 -13545.8 -37.0235 22495.9
 15 08 2015  06 26  -14.4958 17960.6 -13545.6 -37.0230 22496.0
 15 08 2015  06 27  -14.4959 17960.7 -13545.8 -37.0233 22496.2
 15 08 2015  06 28  -14.4962 17960.8 -13545.6 -37.0227 22496.1
 15 08 2015  06 29  -14.4963 17960.9 -13545.8 -37.0229 22496.3
 15 08 2015  06 30  -14.4965 17960.9 -13545.5 -37.0224 22496.1
 15 08 2015  06 31  -14.4967 17960.9 -13545.4 -37.0221 22496.0
 15 08 2015  06 32  -14.4966 17961.0 -13545.4 -37.0219 22496.1
 15 08 2015  06 33  -14.4969 17960.9 -13545.3 -37.0218 22496.0
 15 08 2015  06 34  -14.4969 17961.0 -13545.4 -37.0219 22496.1
 15 08 2015  06 35  -14.4975 17960.8 -13545.7 -37.0228 22496.1
 15 08 2015  06 36  -14.4980 17960.9 -13545.2 -37.0218 22495.9
 15 08 2015  06 37  -14.4983 17960.7 -13545.3 -37.0221 22495.8
 15 08 2015  06 38  -14.4985 17960.7 -13545.6 -37.0228 22495.9
 15 08 2015  06 39  -14.4984 17960.5 -13545.3 -37.0225 22495.7
 15 08 2015  06 40  -14.4980 17960.5 -13545.1 -37.0220 22495.6
 15 08 2015  06 41  -14.4976 17960.4 -13545.6 -37.0232 22495.7
 15 08 2015  06 42  -14.4975 17960.5 -13545.4 -37.0227 22495.7
 15 08 2015  06 43  -14.4975 17960.5 -13545.2 -37.0222 22495.6
 15 08 2015  06 44  -14.4975 17960.4 -13546.0 -37.0240 22496.0
 15 08 2015  06 45  -14.4972 17960.8 -13545.5 -37.0224 22496.0
 15 08 2015  06 46  -14.4969 17961.0 -13545.4 -37.0218 22496.1
 15 08 2015  06 47  -14.4968 17961.2 -13545.4 -37.0215 22496.3
 15 08 2015  06 48  -14.4969 17961.4 -13545.8 -37.0221 22496.7
 15 08 2015  06 49  -14.4972 17961.5 -13545.4 -37.0212 22496.6
 15 08 2015  06 50  -14.4975 17961.6 -13545.5 -37.0212 22496.7
 15 08 2015  06 51  -14.4975 17961.5 -13545.4 -37.0211 22496.5
 15 08 2015  06 52  -14.4976 17961.4 -13545.8 -37.0221 22496.7
 15 08 2015  06 53  -14.4979 17961.4 -13545.5 -37.0215 22496.5
 15 08 2015  06 54  -14.4981 17961.4 -13545.3 -37.0210 22496.4
 15 08 2015  06 55  -14.4978 17961.7 -13545.1 -37.0202 22496.4
 15 08 2015  06 56  -14.4976 17961.7 -13545.5 -37.0211 22496.8
 15 08 2015  06 57  -14.4975 17961.8 -13545.7 -37.0213 22497.0
 15 08 2015  06 58  -14.4974 17961.8 -13545.3 -37.0204 22496.7
 15 08 2015  06 59  -14.4972 17962.0 -13545.5 -37.0205 22496.9
 15 08 2015  07 00  -14.4970 17962.0 -13544.8 -37.0191 22496.6
 15 08 2015  07 01  -14.4967 17962.1 -13545.3 -37.0202 22496.9
 15 08 2015  07 02  -14.4966 17962.3 -13545.2 -37.0196 22497.0
 15 08 2015  07 03  -14.4963 17962.4 -13545.7 -37.0205 22497.4
 15 08 2015  07 04  -14.4963 17962.5 -13545.2 -37.0191 22497.2
 15 08 2015  07 05  -14.4963 17962.6 -13545.5 -37.0198 22497.4
 15 08 2015  07 06  -14.4961 17962.7 -13545.6 -37.0197 22497.6
 15 08 2015  07 07  -14.4963 17962.8 -13544.8 -37.0179 22497.1
 15 08 2015  07 08  -14.4961 17962.8 -13544.6 -37.0176 22497.1
 15 08 2015  07 09  -14.4959 17962.8 -13545.1 -37.0186 22497.4
 15 08 2015  07 10  -14.4959 17962.8 -13544.5 -37.0174 22497.1
 15 08 2015  07 11  -14.4958 17962.8 -13545.0 -37.0183 22497.3
 15 08 2015  07 12  -14.4957 17962.8 -13545.1 -37.0187 22497.4
 15 08 2015  07 13  -14.4954 17962.9 -13545.0 -37.0182 22497.4
 15 08 2015  07 14  -14.4952 17963.0 -13545.2 -37.0184 22497.6
 15 08 2015  07 15  -14.4951 17963.1 -13544.5 -37.0169 22497.2
 15 08 2015  07 16  -14.4949 17963.1 -13544.5 -37.0170 22497.2
 15 08 2015  07 17  -14.4942 17963.3 -13544.6 -37.0169 22497.5
 15 08 2015  07 18  -14.4939 17963.3 -13545.3 -37.0182 22497.8
 15 08 2015  07 19  -14.4935 17963.4 -13545.6 -37.0186 22498.1
 15 08 2015  07 20  -14.4934 17963.6 -13545.1 -37.0172 22498.0
 15 08 2015  07 21  -14.4934 17963.8 -13544.9 -37.0167 22498.0
 15 08 2015  07 22  -14.4933 17963.9 -13544.9 -37.0165 22498.1
 15 08 2015  07 23  -14.4931 17964.0 -13545.0 -37.0166 22498.3
 15 08 2015  07 24  -14.4930 17963.9 -13544.0 -37.0146 22497.6
 15 08 2015  07 25  -14.4927 17963.9 -13543.8 -37.0143 22497.4
 15 08 2015  07 26  -14.4925 17964.0 -13544.6 -37.0157 22498.0
 15 08 2015  07 27  -14.4922 17964.2 -13544.6 -37.0154 22498.2
 15 08 2015  07 28  -14.4915 17964.4 -13544.7 -37.0154 22498.4
 15 08 2015  07 29  -14.4908 17964.4 -13544.2 -37.0143 22498.1
 15 08 2015  07 30  -14.4903 17964.3 -13544.1 -37.0142 22498.0
 15 08 2015  07 31  -14.4898 17964.5 -13543.9 -37.0136 22498.0
 15 08 2015  07 32  -14.4886 17964.8 -13544.9 -37.0152 22498.8
 15 08 2015  07 33  -14.4878 17964.8 -13545.0 -37.0153 22498.9
 15 08 2015  07 34  -14.4874 17964.7 -13544.7 -37.0148 22498.7
 15 08 2015  07 35  -14.4871 17964.7 -13544.9 -37.0153 22498.8
 15 08 2015  07 36  -14.4870 17964.7 -13544.5 -37.0145 22498.5
 15 08 2015  07 37  -14.4869 17964.6 -13544.2 -37.0138 22498.3
 15 08 2015  07 38  -14.4869 17964.4 -13544.1 -37.0141 22498.1
 15 08 2015  07 39  -14.4867 17964.3 -13544.7 -37.0155 22498.3
 15 08 2015  07 40  -14.4867 17964.1 -13544.3 -37.0149 22497.9
 15 08 2015  07 41  -14.4866 17964.0 -13543.9 -37.0144 22497.6
 15 08 2015  07 42  -14.4866 17964.0 -13543.6 -37.0138 22497.4
 15 08 2015  07 43  -14.4863 17964.2 -13544.0 -37.0141 22497.8
 15 08 2015  07 44  -14.4862 17964.2 -13544.3 -37.0148 22498.1
 15 08 2015  07 45  -14.4860 17964.2 -13543.9 -37.0140 22497.8
 15 08 2015  07 46  -14.4857 17964.4 -13544.0 -37.0138 22497.9
 15 08 2015  07 47  -14.4855 17964.3 -13543.7 -37.0133 22497.7
 15 08 2015  07 48  -14.4853 17964.3 -13543.7 -37.0133 22497.7
 15 08 2015  07 49  -14.4852 17964.4 -13544.7 -37.0154 22498.4
 15 08 2015  07 50  -14.4856 17964.4 -13544.4 -37.0147 22498.2
 15 08 2015  07 51  -14.4857 17964.4 -13543.9 -37.0136 22498.0
 15 08 2015  07 52  -14.4856 17964.8 -13543.9 -37.0131 22498.2
 15 08 2015  07 53  -14.4857 17964.9 -13544.7 -37.0144 22498.8
 15 08 2015  07 54  -14.4856 17965.3 -13544.8 -37.0140 22499.2
 15 08 2015  07 55  -14.4856 17965.6 -13544.0 -37.0121 22499.0
 15 08 2015  07 56  -14.4855 17965.7 -13543.9 -37.0117 22499.0
 15 08 2015  07 57  -14.4848 17966.0 -13543.9 -37.0111 22499.2
 15 08 2015  07 58  -14.4843 17966.3 -13544.5 -37.0121 22499.8
 15 08 2015  07 59  -14.4839 17966.4 -13544.7 -37.0122 22500.0
 15 08 2015  08 00  -14.4839 17966.6 -13543.7 -37.0099 22499.6
 15 08 2015  08 01  -14.4835 17966.7 -13544.1 -37.0106 22499.9
 15 08 2015  08 02  -14.4835 17966.6 -13543.8 -37.0100 22499.7
 15 08 2015  08 03  -14.4832 17966.7 -13543.9 -37.0102 22499.8
 15 08 2015  08 04  -14.4830 17966.7 -13544.1 -37.0106 22499.9
 15 08 2015  08 05  -14.4828 17966.8 -13543.7 -37.0095 22499.7
 15 08 2015  08 06  -14.4825 17966.9 -13544.0 -37.0100 22500.0
 15 08 2015  08 07  -14.4823 17966.9 -13544.2 -37.0103 22500.1
 15 08 2015  08 08  -14.4822 17967.0 -13543.8 -37.0095 22499.9
 15 08 2015  08 09  -14.4818 17966.8 -13544.3 -37.0107 22500.1
 15 08 2015  08 10  -14.4815 17966.8 -13544.1 -37.0105 22499.9
 15 08 2015  08 11  -14.4812 17966.8 -13543.7 -37.0096 22499.8
 15 08 2015  08 12  -14.4807 17966.8 -13544.5 -37.0110 22500.2
 15 08 2015  08 13  -14.4802 17966.9 -13544.4 -37.0108 22500.2
 15 08 2015  08 14  -14.4800 17967.0 -13543.6 -37.0091 22499.9
 15 08 2015  08 15  -14.4798 17967.3 -13543.7 -37.0089 22500.2
 15 08 2015  08 16  -14.4796 17967.9 -13543.9 -37.0084 22500.7
 15 08 2015  08 17  -14.4792 17968.4 -13543.4 -37.0064 22500.8
 15 08 2015  08 18  -14.4788 17968.4 -13543.9 -37.0075 22501.2
 15 08 2015  08 19  -14.4788 17968.3 -13544.4 -37.0087 22501.3
 15 08 2015  08 20  -14.4789 17968.0 -13544.0 -37.0084 22500.9
 15 08 2015  08 21  -14.4789 17968.0 -13543.1 -37.0065 22500.3
 15 08 2015  08 22  -14.4787 17968.0 -13544.0 -37.0083 22500.9
 15 08 2015  08 23  -14.4786 17968.4 -13543.7 -37.0071 22501.0
 15 08 2015  08 24  -14.4781 17968.7 -13543.5 -37.0062 22501.1
 15 08 2015  08 25  -14.4774 17969.0 -13543.5 -37.0059 22501.4
 15 08 2015  08 26  -14.4771 17969.1 -13543.0 -37.0046 22501.2
 15 08 2015  08 27  -14.4768 17969.2 -13543.0 -37.0045 22501.3
 15 08 2015  08 28  -14.4766 17969.4 -13544.1 -37.0063 22502.0
 15 08 2015  08 29  -14.4804 17974.9 -13544.9 -36.9995 22506.9
 15 08 2015  08 30  -14.4728 17986.7 -13547.2 -36.9862 22517.7
 15 08 2015  08 31  -14.4593 17992.9 -13547.0 -36.9764 22522.6
 15 08 2015  08 32  -14.4561 17996.5 -13545.5 -36.9677 22524.6
 15 08 2015  08 33  -14.4527 17998.3 -13545.4 -36.9647 22525.9
 15 08 2015  08 34  -14.4557 17998.5 -13543.2 -36.9600 22524.7
 15 08 2015  08 35  -14.4600 17998.9 -13542.1 -36.9571 22524.4
 15 08 2015  08 36  -14.4621 17999.3 -13542.2 -36.9567 22524.7
 15 08 2015  08 37  -14.4646 17998.4 -13540.8 -36.9554 22523.2
 15 08 2015  08 38  -14.4680 17998.6 -13540.3 -36.9538 22523.1
 15 08 2015  08 39  -14.4709 17998.9 -13540.8 -36.9545 22523.6
 15 08 2015  08 40  -14.4729 17998.6 -13539.4 -36.9522 22522.5
 15 08 2015  08 41  -14.4738 17998.7 -13539.4 -36.9519 22522.6
 15 08 2015  08 42  -14.4756 17999.3 -13540.0 -36.9524 22523.5
 15 08 2015  08 43  -14.4759 17999.9 -13539.8 -36.9510 22523.9
 15 08 2015  08 44  -14.4766 18000.0 -13539.1 -36.9492 22523.5
 15 08 2015  08 45  -14.4781 17999.9 -13539.0 -36.9494 22523.4
 15 08 2015  08 46  -14.4781 17999.5 -13538.4 -36.9487 22522.6
 15 08 2015  08 47  -14.4775 17999.0 -13539.2 -36.9512 22522.8
 15 08 2015  08 48  -14.4782 17998.3 -13539.1 -36.9520 22522.1
 15 08 2015  08 49  -14.4787 17998.0 -13538.6 -36.9515 22521.6
 15 08 2015  08 50  -14.4806 17996.8 -13538.3 -36.9527 22520.5
 15 08 2015  08 51  -14.4820 17996.4 -13538.8 -36.9543 22520.5
 15 08 2015  08 52  -14.4829 17996.6 -13538.8 -36.9540 22520.6
 15 08 2015  08 53  -14.4839 17995.8 -13538.4 -36.9544 22519.7
 15 08 2015  08 54  -14.4858 17995.6 -13538.3 -36.9544 22519.5
 15 08 2015  08 55  -14.4868 17995.3 -13538.4 -36.9550 22519.3
 15 08 2015  08 56  -14.4874 17994.9 -13538.3 -36.9556 22518.9
 15 08 2015  08 57  -14.4873 17994.6 -13538.3 -36.9561 22518.7
 15 08 2015  08 58  -14.4880 17994.3 -13538.4 -36.9568 22518.5
 15 08 2015  08 59  -14.4889 17994.5 -13538.7 -36.9570 22518.9
 15 08 2015  09 00  -14.4881 17994.7 -13538.7 -36.9567 22519.0
 15 08 2015  09 01  -14.4874 17994.2 -13538.3 -36.9566 22518.4
 15 08 2015  09 02  -14.4875 17993.9 -13538.6 -36.9576 22518.3
 15 08 2015  09 03  -14.4862 17993.7 -13538.7 -36.9582 22518.2
 15 08 2015  09 04  -14.4858 17993.2 -13538.3 -36.9583 22517.6
 15 08 2015  09 05  -14.4854 17993.2 -13539.3 -36.9603 22518.2
 15 08 2015  09 06  -14.4846 17992.1 -13538.4 -36.9600 22516.7
 15 08 2015  09 07  -14.4844 17989.3 -13537.7 -36.9629 22514.1
 15 08 2015  09 08  -14.4863 17989.7 -13538.5 -36.9639 22514.8
 15 08 2015  09 09  -14.4857 17989.3 -13538.8 -36.9652 22514.7
 15 08 2015  09 10  -14.4868 17987.7 -13538.3 -36.9665 22513.2
 15 08 2015  09 11  -14.4872 17989.2 -13539.1 -36.9658 22514.9
 15 08 2015  09 12  -14.4856 17990.0 -13538.9 -36.9644 22515.3
 15 08 2015  09 13  -14.4840 17989.8 -13539.2 -36.9651 22515.4
 15 08 2015  09 14  -14.4841 17990.4 -13539.4 -36.9647 22516.0
 15 08 2015  09 15  -14.4832 17990.8 -13539.4 -36.9640 22516.4
 15 08 2015  09 16  -14.4838 17989.2 -13539.0 -36.9657 22514.8
 15 08 2015  09 17  -14.4843 17990.2 -13539.3 -36.9647 22515.8
 15 08 2015  09 18  -14.4846 17990.7 -13539.3 -36.9640 22516.2
 15 08 2015  09 19  -14.4859 17989.6 -13539.1 -36.9653 22515.2
 15 08 2015  09 20  -14.4876 17989.5 -13539.3 -36.9657 22515.2
 15 08 2015  09 21  -14.4884 17989.9 -13539.3 -36.9653 22515.6
 15 08 2015  09 22  -14.4861 17988.8 -13538.5 -36.9652 22514.2
 15 08 2015  09 23  -14.4843 17990.8 -13539.6 -36.9645 22516.4
 15 08 2015  09 24  -14.4818 17992.1 -13539.6 -36.9625 22517.4
 15 08 2015  09 25  -14.4808 17992.5 -13539.0 -36.9607 22517.4
 15 08 2015  09 26  -14.4808 17993.3 -13539.2 -36.9598 22518.2
 15 08 2015  09 27  -14.4791 17993.7 -13538.4 -36.9576 22518.0
 15 08 2015  09 28  -14.4762 17994.1 -13539.2 -36.9587 22518.8
 15 08 2015  09 29  -14.4737 17993.7 -13538.5 -36.9578 22518.1
 15 08 2015  09 30  -14.4739 17993.9 -13538.9 -36.9585 22518.5
 15 08 2015  09 31  -14.4765 17996.3 -13539.5 -36.9558 22520.8
 15 08 2015  09 32  -14.4768 17995.2 -13538.8 -36.9561 22519.4
 15 08 2015  09 33  -14.4776 17995.8 -13538.4 -36.9545 22519.7
 15 08 2015  09 34  -14.4790 17996.3 -13538.7 -36.9543 22520.3
 15 08 2015  09 35  -14.4754 17995.0 -13538.3 -36.9554 22519.0
 15 08 2015  09 36  -14.4723 17994.6 -13538.0 -36.9554 22518.5
 15 08 2015  09 37  -14.4695 17995.7 -13538.6 -36.9548 22519.8
 15 08 2015  09 38  -14.4680 17996.9 -13538.6 -36.9532 22520.7
 15 08 2015  09 39  -14.4680 17998.7 -13539.0 -36.9512 22522.4
 15 08 2015  09 40  -14.4675 17999.4 -13538.7 -36.9495 22522.8
 15 08 2015  09 41  -14.4670 17999.9 -13538.8 -36.9490 22523.2
 15 08 2015  09 42  -14.4678 18000.3 -13538.1 -36.9470 22523.1
 15 08 2015  09 43  -14.4687 18000.3 -13538.1 -36.9468 22523.1
 15 08 2015  09 44  -14.4711 17999.7 -13537.7 -36.9471 22522.4
 15 08 2015  09 45  -14.4739 17999.0 -13537.1 -36.9470 22521.5
 15 08 2015  09 46  -14.4738 17998.2 -13537.2 -36.9484 22520.9
 15 08 2015  09 47  -14.4717 17998.5 -13537.3 -36.9480 22521.1
 15 08 2015  09 48  -14.4674 17997.9 -13536.7 -36.9478 22520.3
 15 08 2015  09 49  -14.4660 17998.2 -13536.9 -36.9476 22520.7
 15 08 2015  09 50  -14.4653 17999.4 -13536.8 -36.9457 22521.6
 15 08 2015  09 51  -14.4631 18000.1 -13537.1 -36.9452 22522.4
 15 08 2015  09 52  -14.4619 18000.9 -13536.8 -36.9434 22522.8
 15 08 2015  09 53  -14.4603 18001.1 -13537.2 -36.9440 22523.2
 15 08 2015  09 54  -14.4604 18000.6 -13536.8 -36.9437 22522.6
 15 08 2015  09 55  -14.4605 18000.4 -13536.7 -36.9440 22522.3
 15 08 2015  09 56  -14.4607 18001.4 -13537.0 -36.9430 22523.4
 15 08 2015  09 57  -14.4595 18001.5 -13536.7 -36.9423 22523.3
 15 08 2015  09 58  -14.4585 18001.2 -13536.3 -36.9418 22522.8
 15 08 2015  09 59  -14.4573 18001.2 -13536.5 -36.9422 22522.9
 15 08 2015  10 00  -14.4562 18000.6 -13535.4 -36.9411 22521.7
 15 08 2015  10 01  -14.4549 18000.4 -13535.9 -36.9422 22521.8
 15 08 2015  10 02  -14.4531 18000.6 -13536.0 -36.9422 22522.2
 15 08 2015  10 03  -14.4522 18000.0 -13535.9 -36.9429 22521.6
 15 08 2015  10 04  -14.4515 17999.8 -13536.0 -36.9434 22521.4
 15 08 2015  10 05  -14.4530 17999.0 -13535.9 -36.9443 22520.8
 15 08 2015  10 06  -14.4540 17998.1 -13536.3 -36.9465 22520.3
 15 08 2015  10 07  -14.4555 17997.6 -13535.4 -36.9455 22519.3
 15 08 2015  10 08  -14.4540 17997.8 -13535.3 -36.9450 22519.4
 15 08 2015  10 09  -14.4522 17996.6 -13535.3 -36.9467 22518.5
 15 08 2015  10 10  -14.4512 17996.5 -13536.4 -36.9493 22519.0
 15 08 2015  10 11  -14.4526 17996.5 -13536.1 -36.9486 22518.9
 15 08 2015  10 12  -14.4527 17996.2 -13536.5 -36.9500 22518.9
 15 08 2015  10 13  -14.4537 17996.6 -13536.9 -36.9500 22519.5
 15 08 2015  10 14  -14.4545 17996.9 -13537.2 -36.9503 22519.8
 15 08 2015  10 15  -14.4546 17997.4 -13537.3 -36.9497 22520.3
 15 08 2015  10 16  -14.4546 17998.2 -13537.4 -36.9487 22521.0
 15 08 2015  10 17  -14.4556 17998.2 -13537.2 -36.9484 22520.9
 15 08 2015  10 18  -14.4572 17998.8 -13537.3 -36.9476 22521.5
 15 08 2015  10 19  -14.4568 17999.3 -13537.6 -36.9473 22522.0
 15 08 2015  10 20  -14.4561 17998.4 -13537.2 -36.9478 22521.1
 15 08 2015  10 21  -14.4557 17998.0 -13537.0 -36.9482 22520.6
 15 08 2015  10 22  -14.4535 17998.6 -13537.4 -36.9481 22521.3
 15 08 2015  10 23  -14.4528 17998.6 -13537.5 -36.9483 22521.4
 15 08 2015  10 24  -14.4537 17998.1 -13537.3 -36.9486 22520.8
 15 08 2015  10 25  -14.4543 17997.8 -13537.2 -36.9488 22520.6
 15 08 2015  10 26  -14.4554 17998.4 -13538.0 -36.9495 22521.5
 15 08 2015  10 27  -14.4548 17998.2 -13537.2 -36.9483 22520.9
 15 08 2015  10 28  -14.4539 17997.7 -13537.1 -36.9490 22520.4
 15 08 2015  10 29  -14.4546 17995.9 -13537.2 -36.9518 22519.1
 15 08 2015  10 30  -14.4556 17994.8 -13538.0 -36.9551 22518.7
 15 08 2015  10 31  -14.4575 17994.6 -13538.4 -36.9563 22518.7
 15 08 2015  10 32  -14.4570 17995.6 -13538.0 -36.9540 22519.3
 15 08 2015  10 33  -14.4598 17995.4 -13537.7 -36.9536 22519.0
 15 08 2015  10 34  -14.4627 17994.8 -13538.1 -36.9553 22518.7
 15 08 2015  10 35  -14.4648 17995.1 -13538.1 -36.9548 22519.0
 15 08 2015  10 36  -14.4668 17994.1 -13538.3 -36.9568 22518.3
 15 08 2015  10 37  -14.4675 17992.7 -13538.0 -36.9584 22517.0
 15 08 2015  10 38  -14.4694 17993.3 -13537.9 -36.9573 22517.4
 15 08 2015  10 39  -14.4717 17992.3 -13538.0 -36.9590 22516.7
 15 08 2015  10 40  -14.4750 17990.0 -13537.9 -36.9622 22514.8
 15 08 2015  10 41  -14.4765 17990.8 -13538.1 -36.9614 22515.6
 15 08 2015  10 42  -14.4747 17991.6 -13538.9 -36.9617 22516.7
 15 08 2015  10 43  -14.4756 17991.3 -13539.3 -36.9631 22516.6
 15 08 2015  10 44  -14.4761 17991.0 -13539.1 -36.9631 22516.3
 15 08 2015  10 45  -14.4765 17989.5 -13538.9 -36.9651 22514.9
 15 08 2015  10 46  -14.4795 17988.0 -13538.9 -36.9673 22513.8
 15 08 2015  10 47  -14.4838 17986.5 -13539.0 -36.9699 22512.6
 15 08 2015  10 48  -14.4835 17984.8 -13539.2 -36.9729 22511.4
 15 08 2015  10 49  -14.4827 17984.3 -13539.6 -36.9745 22511.2
 15 08 2015  10 50  -14.4831 17982.8 -13540.0 -36.9776 22510.2
 15 08 2015  10 51  -14.4840 17981.7 -13539.3 -36.9778 22509.0
 15 08 2015  10 52  -14.4865 17981.5 -13540.2 -36.9799 22509.4
 15 08 2015  10 53  -14.4896 17980.6 -13540.4 -36.9816 22508.8
 15 08 2015  10 54  -14.4913 17979.4 -13540.1 -36.9829 22507.6
 15 08 2015  10 55  -14.4887 17980.4 -13540.5 -36.9822 22508.7
 15 08 2015  10 56  -14.4883 17979.8 -13540.6 -36.9834 22508.2
 15 08 2015  10 57  -14.4882 17977.8 -13541.2 -36.9876 22507.0
 15 08 2015  10 58  -14.4896 17976.3 -13541.1 -36.9898 22505.8
 15 08 2015  10 59  -14.4935 17974.2 -13541.8 -36.9944 22504.5
 15 08 2015  11 00  -14.4949 17973.7 -13541.5 -36.9946 22503.9
 15 08 2015  11 01  -14.4919 17974.7 -13542.4 -36.9948 22505.3
 15 08 2015  11 02  -14.4906 17973.9 -13543.0 -36.9973 22505.0
 15 08 2015  11 03  -14.4902 17972.1 -13542.0 -36.9979 22502.9
 15 08 2015  11 04  -14.4873 17971.2 -13542.8 -37.0010 22502.8
 15 08 2015  11 05  -14.4872 17969.6 -13542.4 -37.0027 22501.2
 15 08 2015  11 06  -14.4861 17968.5 -13542.2 -37.0040 22500.2
 15 08 2015  11 07  -14.4839 17965.9 -13542.3 -37.0081 22498.2
 15 08 2015  11 08  -14.4837 17963.3 -13542.5 -37.0125 22496.2
 15 08 2015  11 09  -14.4846 17961.9 -13542.8 -37.0154 22495.3
 15 08 2015  11 10  -14.4870 17960.2 -13543.3 -37.0189 22494.2
 15 08 2015  11 11  -14.4843 17958.8 -13543.7 -37.0219 22493.4
 15 08 2015  11 12  -14.4848 17957.4 -13544.1 -37.0249 22492.5
 15 08 2015  11 13  -14.4899 17956.1 -13544.3 -37.0272 22491.6
 15 08 2015  11 14  -14.4939 17956.1 -13545.0 -37.0286 22492.0
 15 08 2015  11 15  -14.4898 17956.4 -13545.4 -37.0290 22492.4
 15 08 2015  11 16  -14.4855 17954.6 -13545.2 -37.0313 22490.9
 15 08 2015  11 17  -14.4864 17952.7 -13545.0 -37.0337 22489.2
 15 08 2015  11 18  -14.4894 17951.9 -13545.3 -37.0356 22488.7
 15 08 2015  11 19  -14.4903 17951.0 -13545.7 -37.0379 22488.3
 15 08 2015  11 20  -14.4910 17949.7 -13545.6 -37.0396 22487.2
 15 08 2015  11 21  -14.4910 17948.4 -13545.8 -37.0422 22486.3
 15 08 2015  11 22  -14.4950 17946.8 -13545.8 -37.0446 22485.0
 15 08 2015  11 23  -14.4990 17945.1 -13546.3 -37.0480 22484.0
 15 08 2015  11 24  -14.5004 17944.7 -13546.3 -37.0487 22483.6
 15 08 2015  11 25  -14.4986 17945.1 -13546.8 -37.0490 22484.3
 15 08 2015  11 26  -14.4978 17946.6 -13547.6 -37.0486 22485.9
 15 08 2015  11 27  -14.4964 17948.6 -13548.3 -37.0468 22488.0
 15 08 2015  11 28  -14.5017 17948.8 -13548.4 -37.0468 22488.2
 15 08 2015  11 29  -14.5014 17949.9 -13548.3 -37.0449 22489.0
 15 08 2015  11 30  -14.5048 17952.2 -13548.8 -37.0423 22491.1
 15 08 2015  11 31  -14.5035 17951.2 -13548.9 -37.0440 22490.4
 15 08 2015  11 32  -14.4942 17953.8 -13548.9 -37.0401 22492.5
 15 08 2015  11 33  -14.4841 17957.9 -13549.8 -37.0355 22496.3
 15 08 2015  11 34  -14.4687 17962.1 -13551.1 -37.0319 22500.5
 15 08 2015  11 35  -14.4660 17965.8 -13550.5 -37.0250 22503.0
 15 08 2015  11 36  -14.4598 17966.5 -13550.9 -37.0245 22503.8
 15 08 2015  11 37  -14.4536 17967.6 -13550.1 -37.0213 22504.2
 15 08 2015  11 38  -14.4487 17969.4 -13550.1 -37.0186 22505.7
 15 08 2015  11 39  -14.4371 17970.3 -13549.4 -37.0159 22505.9
 15 08 2015  11 40  -14.4280 17970.9 -13549.0 -37.0141 22506.2
 15 08 2015  11 41  -14.4236 17967.8 -13548.8 -37.0184 22503.6
 15 08 2015  11 42  -14.4205 17965.8 -13548.3 -37.0206 22501.7
 15 08 2015  11 43  -14.4159 17965.3 -13549.6 -37.0238 22502.1
 15 08 2015  11 44  -14.4120 17964.6 -13549.2 -37.0241 22501.3
 15 08 2015  11 45  -14.4078 17963.8 -13548.7 -37.0244 22500.3
 15 08 2015  11 46  -14.4080 17963.0 -13549.7 -37.0277 22500.3
 15 08 2015  11 47  -14.4049 17961.8 -13549.5 -37.0289 22499.3
 15 08 2015  11 48  -14.3949 17961.5 -13549.7 -37.0300 22499.1
 15 08 2015  11 49  -14.3857 17961.5 -13550.1 -37.0306 22499.4
 15 08 2015  11 50  -14.3805 17961.8 -13550.5 -37.0311 22499.9
 15 08 2015  11 51  -14.3732 17960.6 -13550.6 -37.0331 22499.0
 15 08 2015  11 52  -14.3703 17962.0 -13551.3 -37.0324 22500.5
 15 08 2015  11 53  -14.3673 17961.4 -13551.3 -37.0333 22500.0
 15 08 2015  11 54  -14.3622 17961.5 -13551.4 -37.0333 22500.2
 15 08 2015  11 55  -14.3554 17961.5 -13551.7 -37.0338 22500.3
 15 08 2015  11 56  -14.3512 17960.8 -13551.8 -37.0351 22499.8
 15 08 2015  11 57  -14.3491 17961.3 -13552.4 -37.0357 22500.6
 15 08 2015  11 58  -14.3490 17962.2 -13552.6 -37.0347 22501.4
 15 08 2015  11 59  -14.3546 17961.8 -13552.4 -37.0350 22501.0
 15 08 2015  12 00  -14.3533 17960.6 -13552.2 -37.0363 22499.8
 15 08 2015  12 01  -14.3518 17960.1 -13552.3 -37.0372 22499.6
 15 08 2015  12 02  -14.3564 17958.9 -13552.3 -37.0390 22498.6
 15 08 2015  12 03  -14.3628 17958.0 -13552.7 -37.0413 22498.1
 15 08 2015  12 04  -14.3660 17957.1 -13552.2 -37.0417 22497.1
 15 08 2015  12 05  -14.3673 17958.1 -13552.5 -37.0409 22498.1
 15 08 2015  12 06  -14.3736 17958.4 -13553.1 -37.0416 22498.6
 15 08 2015  12 07  -14.3760 17958.3 -13552.8 -37.0411 22498.5
 15 08 2015  12 08  -14.3811 17952.1 -13551.8 -37.0487 22492.9
 15 08 2015  12 09  -14.3772 17947.2 -13551.5 -37.0554 22488.7
 15 08 2015  12 10  -14.3857 17943.8 -13552.1 -37.0620 22486.4
 15 08 2015  12 11  -14.3970 17941.3 -13552.7 -37.0670 22484.8
 15 08 2015  12 12  -14.4071 17941.0 -13553.8 -37.0698 22485.2
 15 08 2015  12 13  -14.4134 17941.7 -13554.6 -37.0702 22486.2
 15 08 2015  12 14  -14.4183 17941.2 -13554.9 -37.0717 22486.1
 15 08 2015  12 15  -14.4212 17940.2 -13555.0 -37.0735 22485.3
 15 08 2015  12 16  -14.4244 17937.5 -13555.0 -37.0774 22483.1
 15 08 2015  12 17  -14.4334 17933.3 -13554.6 -37.0831 22479.6
 15 08 2015  12 18  -14.4425 17929.2 -13555.0 -37.0902 22476.5
 15 08 2015  12 19  -14.4515 17926.7 -13554.6 -37.0932 22474.3
 15 08 2015  12 20  -14.4610 17926.6 -13555.1 -37.0945 22474.5
 15 08 2015  12 21  -14.4664 17925.6 -13556.2 -37.0982 22474.4
 15 08 2015  12 22  -14.4693 17925.9 -13556.0 -37.0973 22474.5
 15 08 2015  12 23  -14.4708 17926.7 -13556.6 -37.0973 22475.5
 15 08 2015  12 24  -14.4693 17929.2 -13558.2 -37.0967 22478.5
 15 08 2015  12 25  -14.4726 17930.6 -13558.4 -37.0951 22479.7
 15 08 2015  12 26  -14.4753 17930.6 -13558.0 -37.0941 22479.4
 15 08 2015  12 27  -14.4809 17927.0 -13556.7 -37.0971 22475.8
 15 08 2015  12 28  -14.4869 17925.1 -13556.8 -37.1003 22474.3
 15 08 2015  12 29  -14.4895 17923.8 -13556.6 -37.1017 22473.2
 15 08 2015  12 30  -14.4930 17926.0 -13557.9 -37.1010 22475.7
 15 08 2015  12 31  -14.4994 17925.7 -13557.7 -37.1013 22475.3
 15 08 2015  12 32  -14.5008 17926.6 -13557.4 -37.0991 22476.0
 15 08 2015  12 33  -14.5008 17928.0 -13558.6 -37.0994 22477.7
 15 08 2015  12 34  -14.5004 17928.4 -13557.8 -37.0972 22477.5
 15 08 2015  12 35  -14.5034 17926.9 -13557.1 -37.0980 22476.0
 15 08 2015  12 36  -14.5014 17925.7 -13557.2 -37.1000 22475.1
 15 08 2015  12 37  -14.5001 17925.1 -13557.3 -37.1014 22474.6
 15 08 2015  12 38  -14.4984 17925.4 -13557.9 -37.1021 22475.3
 15 08 2015  12 39  -14.4984 17926.4 -13558.3 -37.1014 22476.3
 15 08 2015  12 40  -14.5029 17925.3 -13558.2 -37.1027 22475.4
 15 08 2015  12 41  -14.5047 17923.9 -13557.6 -37.1036 22473.9
 15 08 2015  12 42  -14.5039 17924.7 -13558.5 -37.1043 22475.0
 15 08 2015  12 43  -14.5018 17927.0 -13559.3 -37.1024 22477.4
 15 08 2015  12 44  -14.5007 17929.4 -13559.3 -37.0989 22479.3
 15 08 2015  12 45  -14.4995 17930.3 -13559.9 -37.0984 22480.3
 15 08 2015  12 46  -14.4952 17931.4 -13559.1 -37.0951 22480.8
 15 08 2015  12 47  -14.4905 17932.5 -13560.3 -37.0960 22482.4
 15 08 2015  12 48  -14.4879 17931.9 -13559.8 -37.0958 22481.6
 15 08 2015  12 49  -14.4882 17930.5 -13559.9 -37.0983 22480.5
 15 08 2015  12 50  -14.4891 17928.3 -13559.0 -37.0997 22478.2
 15 08 2015  12 51  -14.4881 17927.2 -13559.4 -37.1023 22477.6
 15 08 2015  12 52  -14.4869 17926.9 -13560.0 -37.1040 22477.8
 15 08 2015  12 53  -14.4855 17928.3 -13561.6 -37.1051 22479.8
 15 08 2015  12 54  -14.4823 17928.9 -13560.9 -37.1027 22479.8
 15 08 2015  12 55  -14.4787 17928.8 -13561.6 -37.1044 22480.2
 15 08 2015  12 56  -14.4747 17929.6 -13562.5 -37.1048 22481.4
 15 08 2015  12 57  -14.4725 17930.0 -13562.4 -37.1040 22481.6
 15 08 2015  12 58  -14.4690 17930.3 -13562.4 -37.1036 22481.9
 15 08 2015  12 59  -14.4657 17930.3 -13563.3 -37.1054 22482.4
 15 08 2015  13 00  -14.4646 17929.8 -13562.9 -37.1054 22481.7
 15 08 2015  13 01  -14.4631 17929.4 -13563.2 -37.1066 22481.7
 15 08 2015  13 02  -14.4606 17929.4 -13563.3 -37.1068 22481.7
 15 08 2015  13 03  -14.4580 17929.4 -13562.7 -37.1056 22481.4
 15 08 2015  13 04  -14.4575 17929.1 -13563.4 -37.1076 22481.5
 15 08 2015  13 05  -14.4591 17928.3 -13563.5 -37.1090 22480.9
 15 08 2015  13 06  -14.4608 17927.5 -13563.7 -37.1105 22480.4
 15 08 2015  13 07  -14.4618 17926.9 -13564.6 -37.1133 22480.5
 15 08 2015  13 08  -14.4640 17926.5 -13564.0 -37.1126 22479.8
 15 08 2015  13 09  -14.4664 17926.3 -13564.3 -37.1137 22479.9
 15 08 2015  13 10  -14.4661 17926.7 -13564.2 -37.1127 22480.1
 15 08 2015  13 11  -14.4649 17927.5 -13565.1 -37.1134 22481.3
 15 08 2015  13 12  -14.4642 17929.0 -13565.7 -37.1122 22482.8
 15 08 2015  13 13  -14.4650 17929.6 -13565.0 -37.1100 22482.8
 15 08 2015  13 14  -14.4668 17929.1 -13565.0 -37.1107 22482.5
 15 08 2015  13 15  -14.4707 17928.4 -13565.0 -37.1119 22481.9
 15 08 2015  13 16  -14.4724 17927.5 -13564.9 -37.1129 22481.2
 15 08 2015  13 17  -14.4744 17927.0 -13564.8 -37.1137 22480.7
 15 08 2015  13 18  -14.4779 17926.4 -13565.1 -37.1151 22480.4
 15 08 2015  13 19  -14.4815 17926.5 -13565.4 -37.1155 22480.7
 15 08 2015  13 20  -14.4825 17927.2 -13565.8 -37.1153 22481.4
 15 08 2015  13 21  -14.4811 17928.1 -13566.1 -37.1145 22482.3
 15 08 2015  13 22  -14.4808 17929.1 -13566.5 -37.1139 22483.4
 15 08 2015  13 23  -14.4805 17930.2 -13567.1 -37.1134 22484.6
 15 08 2015  13 24  -14.4795 17931.0 -13566.6 -37.1111 22484.9
 15 08 2015  13 25  -14.4787 17931.9 -13567.1 -37.1106 22486.0
 15 08 2015  13 26  -14.4784 17932.4 -13566.9 -37.1095 22486.3
 15 08 2015  13 27  -14.4755 17932.8 -13567.0 -37.1090 22486.6
 15 08 2015  13 28  -14.4731 17933.1 -13566.3 -37.1073 22486.4
 15 08 2015  13 29  -14.4711 17934.7 -13566.5 -37.1052 22487.8
 15 08 2015  13 30  -14.4723 17934.4 -13566.5 -37.1057 22487.6
 15 08 2015  13 31  -14.4733 17932.0 -13565.8 -37.1079 22485.3
 15 08 2015  13 32  -14.4757 17931.5 -13565.4 -37.1079 22484.7
 15 08 2015  13 33  -14.4756 17931.7 -13566.3 -37.1095 22485.3
 15 08 2015  13 34  -14.4751 17932.0 -13566.2 -37.1086 22485.5
 15 08 2015  13 35  -14.4737 17931.7 -13566.1 -37.1090 22485.2
 15 08 2015  13 36  -14.4729 17931.9 -13566.6 -37.1098 22485.6
 15 08 2015  13 37  -14.4748 17930.5 -13566.1 -37.1108 22484.3
 15 08 2015  13 38  -14.4761 17929.5 -13566.1 -37.1124 22483.5
 15 08 2015  13 39  -14.4756 17928.7 -13566.9 -37.1153 22483.3
 15 08 2015  13 40  -14.4784 17926.6 -13566.8 -37.1182 22481.6
 15 08 2015  13 41  -14.4807 17926.3 -13566.1 -37.1172 22480.9
 15 08 2015  13 42  -14.4814 17925.8 -13566.6 -37.1190 22480.8
 15 08 2015  13 43  -14.4790 17926.0 -13567.0 -37.1197 22481.2
 15 08 2015  13 44  -14.4783 17924.7 -13567.3 -37.1223 22480.4
 15 08 2015  13 45  -14.4778 17924.8 -13567.2 -37.1218 22480.4
 15 08 2015  13 46  -14.4760 17925.4 -13567.4 -37.1212 22481.0
 15 08 2015  13 47  -14.4746 17925.1 -13567.8 -37.1226 22481.0
 15 08 2015  13 48  -14.4723 17924.5 -13568.8 -37.1255 22481.1
 15 08 2015  13 49  -14.4695 17924.7 -13568.9 -37.1253 22481.3
 15 08 2015  13 50  -14.4688 17925.1 -13569.5 -37.1261 22482.0
 15 08 2015  13 51  -14.4686 17926.9 -13569.2 -37.1226 22483.3
 15 08 2015  13 52  -14.4672 17927.3 -13570.1 -37.1238 22484.1
 15 08 2015  13 53  -14.4660 17927.9 -13569.7 -37.1222 22484.3
 15 08 2015  13 54  -14.4631 17926.6 -13569.6 -37.1240 22483.2
 15 08 2015  13 55  -14.4626 17927.5 -13569.5 -37.1223 22484.0
 15 08 2015  13 56  -14.4606 17930.5 -13569.9 -37.1184 22486.6
 15 08 2015  13 57  -14.4566 17932.8 -13570.5 -37.1163 22488.7
 15 08 2015  13 58  -14.4530 17933.9 -13570.2 -37.1139 22489.4
 15 08 2015  13 59  -14.4492 17935.6 -13570.7 -37.1122 22491.1
 15 08 2015  14 00  -14.4448 17936.7 -13570.2 -37.1097 22491.7
 15 08 2015  14 01  -14.4405 17938.8 -13570.5 -37.1071 22493.5
 15 08 2015  14 02  -14.4382 17939.2 -13570.2 -37.1058 22493.6
 15 08 2015  14 03  -14.4384 17938.0 -13569.7 -37.1065 22492.4
 15 08 2015  14 04  -14.4421 17935.4 -13569.0 -37.1093 22489.9
 15 08 2015  14 05  -14.4459 17932.1 -13568.6 -37.1135 22487.0
 15 08 2015  14 06  -14.4503 17929.4 -13568.2 -37.1168 22484.6
 15 08 2015  14 07  -14.4501 17928.0 -13568.2 -37.1189 22483.6
 15 08 2015  14 08  -14.4511 17925.8 -13569.0 -37.1239 22482.3
 15 08 2015  14 09  -14.4529 17923.9 -13568.4 -37.1257 22480.4
 15 08 2015  14 10  -14.4523 17924.7 -13569.5 -37.1265 22481.7
 15 08 2015  14 11  -14.4502 17926.2 -13570.3 -37.1260 22483.4
 15 08 2015  14 12  -14.4465 17927.5 -13569.8 -37.1230 22484.1
 15 08 2015  14 13  -14.4443 17928.0 -13570.4 -37.1235 22484.8
 15 08 2015  14 14  -14.4452 17928.1 -13571.1 -37.1248 22485.4
 15 08 2015  14 15  -14.4453 17929.1 -13570.3 -37.1215 22485.7
 15 08 2015  14 16  -14.4436 17930.1 -13569.9 -37.1191 22486.2
 15 08 2015  14 17  -14.4414 17931.5 -13570.3 -37.1179 22487.6
 15 08 2015  14 18  -14.4347 17935.4 -13569.9 -37.1110 22490.5
 15 08 2015  14 19  -14.4273 17938.6 -13570.5 -37.1074 22493.4
 15 08 2015  14 20  -14.4195 17941.1 -13570.4 -37.1034 22495.3
 15 08 2015  14 21  -14.4181 17941.1 -13569.6 -37.1017 22494.9
 15 08 2015  14 22  -14.4204 17941.9 -13569.6 -37.1004 22495.4
 15 08 2015  14 23  -14.4266 17942.0 -13569.4 -37.0999 22495.4
 15 08 2015  14 24  -14.4323 17942.6 -13568.5 -37.0971 22495.4
 15 08 2015  14 25  -14.4323 17944.3 -13568.6 -37.0947 22496.7
 15 08 2015  14 26  -14.4306 17948.4 -13569.0 -37.0892 22500.3
 15 08 2015  14 27  -14.4286 17954.5 -13569.4 -37.0807 22505.4
 15 08 2015  14 28  -14.4242 17960.0 -13569.5 -37.0726 22509.8
 15 08 2015  14 29  -14.4217 17960.8 -13569.0 -37.0702 22510.2
 15 08 2015  14 30  -14.4292 17956.3 -13566.2 -37.0714 22504.9
 15 08 2015  14 31  -14.4408 17952.6 -13564.8 -37.0743 22501.2
 15 08 2015  14 32  -14.4503 17952.0 -13564.6 -37.0747 22500.5
 15 08 2015  14 33  -14.4539 17950.5 -13564.1 -37.0760 22499.0
 15 08 2015  14 34  -14.4603 17942.6 -13562.9 -37.0857 22492.0
 15 08 2015  14 35  -14.4766 17932.7 -13561.1 -37.0973 22483.0
 15 08 2015  14 36  -14.4893 17925.9 -13561.3 -37.1082 22477.7
 15 08 2015  14 37  -14.4903 17926.2 -13562.6 -37.1104 22478.7
 15 08 2015  14 38  -14.4837 17931.3 -13564.8 -37.1070 22484.1
 15 08 2015  14 39  -14.4797 17932.5 -13566.1 -37.1078 22485.9
 15 08 2015  14 40  -14.4836 17928.4 -13565.6 -37.1130 22482.3
 15 08 2015  14 41  -14.4908 17924.3 -13564.7 -37.1175 22478.5
 15 08 2015  14 42  -14.4943 17922.8 -13565.7 -37.1219 22477.9
 15 08 2015  14 43  -14.4957 17921.7 -13566.1 -37.1243 22477.3
 15 08 2015  14 44  -14.4968 17921.6 -13566.8 -37.1260 22477.6
 15 08 2015  14 45  -14.4972 17922.3 -13566.5 -37.1243 22477.9
 15 08 2015  14 46  -14.4957 17922.9 -13568.0 -37.1264 22479.4
 15 08 2015  14 47  -14.4947 17924.1 -13568.2 -37.1249 22480.4
 15 08 2015  14 48  -14.4938 17925.2 -13568.2 -37.1233 22481.3
 15 08 2015  14 49  -14.4931 17925.2 -13568.8 -37.1245 22481.7
 15 08 2015  14 50  -14.4932 17925.3 -13567.7 -37.1219 22481.1
 15 08 2015  14 51  -14.4918 17926.3 -13568.1 -37.1214 22482.1
 15 08 2015  14 52  -14.4909 17926.9 -13568.1 -37.1205 22482.6
 15 08 2015  14 53  -14.4918 17927.4 -13568.6 -37.1207 22483.3
 15 08 2015  14 54  -14.4906 17928.8 -13567.8 -37.1169 22484.0
 15 08 2015  14 55  -14.4887 17930.2 -13569.1 -37.1173 22485.8
 15 08 2015  14 56  -14.4868 17932.3 -13568.4 -37.1127 22487.0
 15 08 2015  14 57  -14.4837 17934.5 -13568.5 -37.1095 22488.9
 15 08 2015  14 58  -14.4814 17935.4 -13568.0 -37.1071 22489.3
 15 08 2015  14 59  -14.4787 17935.6 -13567.8 -37.1065 22489.4
 15 08 2015  15 00  -14.4769 17936.2 -13567.8 -37.1055 22489.8
 15 08 2015  15 01  -14.4753 17937.9 -13567.9 -37.1031 22491.3
 15 08 2015  15 02  -14.4733 17939.7 -13567.9 -37.1004 22492.6
 15 08 2015  15 03  -14.4704 17943.2 -13568.0 -37.0951 22495.5
 15 08 2015  15 04  -14.4675 17945.1 -13568.0 -37.0922 22497.1
 15 08 2015  15 05  -14.4650 17945.5 -13567.0 -37.0897 22496.8
 15 08 2015  15 06  -14.4631 17945.8 -13566.5 -37.0881 22496.7
 15 08 2015  15 07  -14.4608 17946.0 -13566.1 -37.0870 22496.6
 15 08 2015  15 08  -14.4589 17944.8 -13566.0 -37.0887 22495.6
 15 08 2015  15 09  -14.4564 17943.3 -13565.6 -37.0902 22494.2
 15 08 2015  15 10  -14.4541 17943.0 -13565.6 -37.0907 22493.9
 15 08 2015  15 11  -14.4541 17941.7 -13565.3 -37.0921 22492.7
 15 08 2015  15 12  -14.4537 17940.3 -13565.1 -37.0938 22491.5
 15 08 2015  15 13  -14.4501 17941.0 -13565.8 -37.0940 22492.5
 15 08 2015  15 14  -14.4432 17943.3 -13566.1 -37.0911 22494.5
 15 08 2015  15 15  -14.4370 17944.4 -13566.5 -37.0903 22495.6
 15 08 2015  15 16  -14.4309 17945.0 -13566.3 -37.0889 22495.9
 15 08 2015  15 17  -14.4241 17946.5 -13566.4 -37.0868 22497.1
 15 08 2015  15 18  -14.4200 17947.4 -13566.5 -37.0857 22498.0
 15 08 2015  15 19  -14.4123 17954.4 -13567.7 -37.0773 22504.3
 15 08 2015  15 20  -14.3994 17968.7 -13569.9 -37.0598 22517.0
 15 08 2015  15 21  -14.3891 17972.6 -13568.9 -37.0519 22519.6
 15 08 2015  15 22  -14.3771 17974.2 -13567.3 -37.0461 22519.9
 15 08 2015  15 23  -14.3626 17976.6 -13567.0 -37.0419 22521.6
 15 08 2015  15 24  -14.3556 17977.3 -13565.4 -37.0375 22521.1
 15 08 2015  15 25  -14.3497 17978.4 -13565.1 -37.0352 22521.8
 15 08 2015  15 26  -14.3521 17975.1 -13562.3 -37.0346 22517.5
 15 08 2015  15 27  -14.3534 17973.7 -13561.9 -37.0359 22516.2
 15 08 2015  15 28  -14.3542 17971.4 -13561.1 -37.0378 22513.9
 15 08 2015  15 29  -14.3555 17969.0 -13560.7 -37.0408 22511.7
 15 08 2015  15 30  -14.3599 17968.8 -13561.2 -37.0420 22511.8
 15 08 2015  15 31  -14.3635 17968.5 -13561.0 -37.0422 22511.5
 15 08 2015  15 32  -14.3707 17965.1 -13560.2 -37.0457 22508.4
 15 08 2015  15 33  -14.3773 17961.3 -13559.8 -37.0506 22505.0
 15 08 2015  15 34  -14.3783 17962.7 -13560.5 -37.0500 22506.5
 15 08 2015  15 35  -14.3801 17964.6 -13561.6 -37.0495 22508.7
 15 08 2015  15 36  -14.3810 17963.8 -13561.2 -37.0498 22507.8
 15 08 2015  15 37  -14.3829 17961.1 -13560.7 -37.0529 22505.4
 15 08 2015  15 38  -14.3822 17961.1 -13560.1 -37.0517 22505.1
 15 08 2015  15 39  -14.3807 17962.7 -13561.7 -37.0524 22507.3
 15 08 2015  15 40  -14.3803 17964.0 -13561.8 -37.0506 22508.3
 15 08 2015  15 41  -14.3838 17962.4 -13561.1 -37.0516 22506.7
 15 08 2015  15 42  -14.3913 17958.3 -13560.1 -37.0558 22502.8
 15 08 2015  15 43  -14.3973 17955.7 -13560.0 -37.0596 22500.7
 15 08 2015  15 44  -14.4027 17951.7 -13559.5 -37.0648 22497.2
 15 08 2015  15 45  -14.4066 17947.1 -13558.9 -37.0707 22493.2
 15 08 2015  15 46  -14.4153 17941.2 -13558.3 -37.0786 22488.1
 15 08 2015  15 47  -14.4221 17938.7 -13558.6 -37.0829 22486.3
 15 08 2015  15 48  -14.4197 17940.3 -13560.4 -37.0842 22488.6
 15 08 2015  15 49  -14.4134 17942.8 -13561.3 -37.0821 22491.2
 15 08 2015  15 50  -14.4092 17944.1 -13562.1 -37.0819 22492.7
 15 08 2015  15 51  -14.4087 17944.9 -13561.6 -37.0795 22493.0
 15 08 2015  15 52  -14.4094 17945.3 -13561.8 -37.0794 22493.4
 15 08 2015  15 53  -14.4106 17945.5 -13561.7 -37.0789 22493.6
 15 08 2015  15 54  -14.4124 17945.2 -13560.8 -37.0776 22492.8
 15 08 2015  15 55  -14.4137 17945.1 -13561.0 -37.0780 22492.8
 15 08 2015  15 56  -14.4137 17944.8 -13561.4 -37.0794 22492.9
 15 08 2015  15 57  -14.4124 17945.6 -13560.2 -37.0757 22492.8
 15 08 2015  15 58  -14.4072 17948.1 -13561.3 -37.0740 22495.4
 15 08 2015  15 59  -14.4048 17949.3 -13561.5 -37.0726 22496.5
 15 08 2015  16 00  -14.4030 17950.0 -13561.8 -37.0723 22497.2
 15 08 2015  16 01  -14.4010 17949.9 -13561.0 -37.0707 22496.6
 15 08 2015  16 02  -14.4024 17948.1 -13560.4 -37.0723 22494.9
 15 08 2015  16 03  -14.4009 17948.7 -13560.1 -37.0706 22495.1
 15 08 2015  16 04  -14.3989 17950.3 -13560.5 -37.0692 22496.7
 15 08 2015  16 05  -14.3985 17951.0 -13560.5 -37.0681 22497.2
 15 08 2015  16 06  -14.3975 17951.5 -13560.5 -37.0671 22497.6
 15 08 2015  16 07  -14.4000 17951.4 -13560.7 -37.0678 22497.7
 15 08 2015  16 08  -14.4045 17950.4 -13559.6 -37.0672 22496.2
 15 08 2015  16 09  -14.4077 17950.3 -13559.8 -37.0675 22496.3
 15 08 2015  16 10  -14.4103 17950.4 -13559.7 -37.0671 22496.3
 15 08 2015  16 11  -14.4152 17949.9 -13559.6 -37.0678 22495.8
 15 08 2015  16 12  -14.4179 17949.7 -13558.9 -37.0668 22495.3
 15 08 2015  16 13  -14.4220 17948.1 -13559.2 -37.0699 22494.2
 15 08 2015  16 14  -14.4240 17948.5 -13559.6 -37.0699 22494.7
 15 08 2015  16 15  -14.4275 17947.9 -13558.6 -37.0689 22493.7
 15 08 2015  16 16  -14.4280 17948.5 -13559.4 -37.0696 22494.6
 15 08 2015  16 17  -14.4295 17948.9 -13559.6 -37.0693 22495.1
 15 08 2015  16 18  -14.4330 17947.8 -13559.7 -37.0712 22494.2
 15 08 2015  16 19  -14.4372 17947.1 -13558.5 -37.0699 22493.0
 15 08 2015  16 20  -14.4382 17948.1 -13559.4 -37.0701 22494.2
 15 08 2015  16 21  -14.4389 17948.3 -13559.0 -37.0690 22494.2
 15 08 2015  16 22  -14.4393 17948.9 -13559.8 -37.0697 22495.1
 15 08 2015  16 23  -14.4413 17948.1 -13558.7 -37.0688 22493.8
 15 08 2015  16 24  -14.4435 17946.5 -13558.1 -37.0701 22492.2
 15 08 2015  16 25  -14.4469 17945.7 -13558.7 -37.0725 22491.9
 15 08 2015  16 26  -14.4490 17946.2 -13559.2 -37.0727 22492.6
 15 08 2015  16 27  -14.4505 17947.2 -13558.6 -37.0700 22493.1
 15 08 2015  16 28  -14.4514 17947.1 -13558.9 -37.0708 22493.1
 15 08 2015  16 29  -14.4526 17947.9 -13559.1 -37.0699 22493.9
 15 08 2015  16 30  -14.4519 17949.6 -13559.5 -37.0680 22495.5
 15 08 2015  16 31  -14.4502 17950.0 -13560.1 -37.0686 22496.2
 15 08 2015  16 32  -14.4502 17949.8 -13559.7 -37.0680 22495.8
 15 08 2015  16 33  -14.4512 17948.6 -13559.6 -37.0698 22494.7
 15 08 2015  16 34  -14.4516 17947.8 -13558.8 -37.0693 22493.7
 15 08 2015  16 35  -14.4537 17947.8 -13558.3 -37.0684 22493.3
 15 08 2015  16 36  -14.4565 17946.5 -13558.2 -37.0703 22492.3
 15 08 2015  16 37  -14.4600 17944.7 -13557.9 -37.0723 22490.6
 15 08 2015  16 38  -14.4633 17943.0 -13558.3 -37.0757 22489.5
 15 08 2015  16 39  -14.4669 17940.2 -13558.5 -37.0804 22487.4
 15 08 2015  16 40  -14.4683 17938.8 -13558.1 -37.0819 22486.0
 15 08 2015  16 41  -14.4705 17937.5 -13559.1 -37.0858 22485.6
 15 08 2015  16 42  -14.4737 17937.3 -13559.0 -37.0860 22485.4
 15 08 2015  16 43  -14.4753 17937.6 -13559.2 -37.0860 22485.7
 15 08 2015  16 44  -14.4753 17937.6 -13559.4 -37.0863 22485.9
 15 08 2015  16 45  -14.4742 17937.5 -13560.1 -37.0880 22486.2
 15 08 2015  16 46  -14.4731 17937.5 -13560.1 -37.0879 22486.3
 15 08 2015  16 47  -14.4727 17937.4 -13560.4 -37.0887 22486.3
 15 08 2015  16 48  -14.4728 17937.1 -13560.2 -37.0886 22485.9
 15 08 2015  16 49  -14.4726 17937.4 -13560.2 -37.0882 22486.2
 15 08 2015  16 50  -14.4728 17937.1 -13559.6 -37.0875 22485.6
 15 08 2015  16 51  -14.4728 17936.3 -13560.0 -37.0896 22485.2
 15 08 2015  16 52  -14.4731 17936.7 -13560.1 -37.0892 22485.6
 15 08 2015  16 53  -14.4731 17937.4 -13560.9 -37.0896 22486.6
 15 08 2015  16 54  -14.4738 17937.9 -13559.9 -37.0869 22486.4
 15 08 2015  16 55  -14.4726 17939.0 -13560.8 -37.0870 22487.9
 15 08 2015  16 56  -14.4717 17939.5 -13561.6 -37.0878 22488.7
 15 08 2015  16 57  -14.4711 17939.2 -13561.0 -37.0870 22488.1
 15 08 2015  16 58  -14.4700 17939.3 -13560.8 -37.0867 22488.1
 15 08 2015  16 59  -14.4695 17939.4 -13560.5 -37.0858 22487.9
 15 08 2015  17 00  -14.4695 17938.8 -13560.5 -37.0868 22487.5
 15 08 2015  17 01  -14.4687 17938.4 -13560.9 -37.0881 22487.4
 15 08 2015  17 02  -14.4685 17938.4 -13560.4 -37.0871 22487.1
 15 08 2015  17 03  -14.4685 17937.8 -13561.5 -37.0901 22487.3
 15 08 2015  17 04  -14.4698 17937.2 -13560.7 -37.0896 22486.3
 15 08 2015  17 05  -14.4692 17936.9 -13560.7 -37.0900 22486.1
 15 08 2015  17 06  -14.4706 17935.8 -13560.8 -37.0921 22485.3
 15 08 2015  17 07  -14.4715 17933.6 -13560.6 -37.0948 22483.4
 15 08 2015  17 08  -14.4733 17932.1 -13560.6 -37.0973 22482.2
 15 08 2015  17 09  -14.4747 17931.3 -13560.3 -37.0978 22481.4
 15 08 2015  17 10  -14.4760 17931.1 -13560.2 -37.0979 22481.2
 15 08 2015  17 11  -14.4765 17931.1 -13560.7 -37.0989 22481.4
 15 08 2015  17 12  -14.4756 17931.3 -13560.9 -37.0991 22481.8
 15 08 2015  17 13  -14.4748 17931.6 -13561.0 -37.0989 22482.0
 15 08 2015  17 14  -14.4743 17931.6 -13561.5 -37.0999 22482.3
 15 08 2015  17 15  -14.4724 17932.6 -13561.4 -37.0982 22483.1
 15 08 2015  17 16  -14.4705 17934.7 -13562.5 -37.0970 22485.4
 15 08 2015  17 17  -14.4702 17936.0 -13562.6 -37.0952 22486.5
 15 08 2015  17 18  -14.4688 17937.2 -13562.5 -37.0932 22487.5
 15 08 2015  17 19  -14.4701 17937.5 -13562.5 -37.0927 22487.7
 15 08 2015  17 20  -14.4727 17936.4 -13561.9 -37.0932 22486.5
 15 08 2015  17 21  -14.4710 17935.2 -13561.8 -37.0948 22485.4
 15 08 2015  17 22  -14.4698 17933.4 -13561.3 -37.0966 22483.6
 15 08 2015  17 23  -14.4682 17933.8 -13561.6 -37.0966 22484.2
 15 08 2015  17 24  -14.4634 17935.5 -13562.4 -37.0957 22486.0
 15 08 2015  17 25  -14.4613 17935.8 -13562.3 -37.0950 22486.2
 15 08 2015  17 26  -14.4615 17937.3 -13562.4 -37.0929 22487.5
 15 08 2015  17 27  -14.4585 17939.4 -13562.8 -37.0905 22489.4
 15 08 2015  17 28  -14.4551 17940.0 -13562.3 -37.0886 22489.5
 15 08 2015  17 29  -14.4519 17940.4 -13562.5 -37.0882 22490.0
 15 08 2015  17 30  -14.4521 17940.6 -13562.0 -37.0869 22489.8
 15 08 2015  17 31  -14.4529 17940.6 -13561.9 -37.0868 22489.7
 15 08 2015  17 32  -14.4542 17939.9 -13561.2 -37.0865 22488.8
 15 08 2015  17 33  -14.4551 17939.7 -13561.4 -37.0872 22488.7
 15 08 2015  17 34  -14.4559 17939.3 -13561.1 -37.0870 22488.2
 15 08 2015  17 35  -14.4545 17939.7 -13561.2 -37.0866 22488.6
 15 08 2015  17 36  -14.4539 17939.9 -13561.1 -37.0862 22488.7
 15 08 2015  17 37  -14.4522 17940.0 -13560.9 -37.0857 22488.7
 15 08 2015  17 38  -14.4495 17940.7 -13561.2 -37.0852 22489.4
 15 08 2015  17 39  -14.4486 17941.0 -13561.4 -37.0850 22489.8
 15 08 2015  17 40  -14.4480 17941.4 -13561.3 -37.0844 22490.1
 15 08 2015  17 41  -14.4470 17941.4 -13560.6 -37.0829 22489.6
 15 08 2015  17 42  -14.4449 17941.2 -13560.9 -37.0838 22489.7
 15 08 2015  17 43  -14.4462 17940.3 -13560.7 -37.0847 22488.8
 15 08 2015  17 44  -14.4470 17939.7 -13560.7 -37.0857 22488.3
 15 08 2015  17 45  -14.4460 17940.2 -13560.9 -37.0853 22488.9
 15 08 2015  17 46  -14.4460 17939.9 -13560.5 -37.0850 22488.4
 15 08 2015  17 47  -14.4467 17939.5 -13560.7 -37.0860 22488.2
 15 08 2015  17 48  -14.4475 17939.2 -13560.7 -37.0864 22488.0
 15 08 2015  17 49  -14.4494 17938.9 -13561.0 -37.0875 22487.9
 15 08 2015  17 50  -14.4512 17939.6 -13561.0 -37.0863 22488.5
 15 08 2015  17 51  -14.4521 17940.0 -13561.1 -37.0861 22488.8
 15 08 2015  17 52  -14.4526 17940.3 -13560.6 -37.0846 22488.7
 15 08 2015  17 53  -14.4525 17940.6 -13560.3 -37.0835 22488.9
 15 08 2015  17 54  -14.4516 17940.8 -13561.4 -37.0855 22489.7
 15 08 2015  17 55  -14.4529 17940.8 -13560.3 -37.0832 22489.0
 15 08 2015  17 56  -14.4550 17939.7 -13559.8 -37.0840 22487.8
 15 08 2015  17 57  -14.4562 17939.0 -13560.3 -37.0860 22487.6
 15 08 2015  17 58  -14.4617 17938.1 -13559.3 -37.0854 22486.2
 15 08 2015  17 59  -14.4658 17937.3 -13559.6 -37.0871 22485.7
 15 08 2015  18 00  -14.4687 17936.8 -13558.9 -37.0866 22484.9
 15 08 2015  18 01  -14.4715 17936.8 -13559.2 -37.0871 22485.1
 15 08 2015  18 02  -14.4738 17935.5 -13558.7 -37.0882 22483.8
 15 08 2015  18 03  -14.4743 17934.0 -13557.9 -37.0887 22482.1
 15 08 2015  18 04  -14.4757 17933.0 -13558.3 -37.0910 22481.5
 15 08 2015  18 05  -14.4792 17932.0 -13558.0 -37.0920 22480.6
 15 08 2015  18 06  -14.4818 17931.5 -13558.1 -37.0929 22480.2
 15 08 2015  18 07  -14.4828 17930.9 -13558.3 -37.0943 22479.9
 15 08 2015  18 08  -14.4849 17929.9 -13558.1 -37.0954 22479.0
 15 08 2015  18 09  -14.4882 17928.9 -13557.6 -37.0961 22477.8
 15 08 2015  18 10  -14.4901 17928.1 -13557.5 -37.0970 22477.1
 15 08 2015  18 11  -14.4921 17927.2 -13557.6 -37.0986 22476.5
 15 08 2015  18 12  -14.4944 17926.1 -13557.0 -37.0991 22475.2
 15 08 2015  18 13  -14.4961 17925.0 -13557.2 -37.1012 22474.5
 15 08 2015  18 14  -14.4969 17924.6 -13556.9 -37.1013 22474.0
 15 08 2015  18 15  -14.4977 17924.0 -13557.0 -37.1023 22473.6
 15 08 2015  18 16  -14.4984 17924.3 -13557.7 -37.1034 22474.3
 15 08 2015  18 17  -14.4975 17924.4 -13557.2 -37.1021 22474.0
 15 08 2015  18 18  -14.4975 17924.3 -13557.6 -37.1030 22474.2
 15 08 2015  18 19  -14.4966 17924.9 -13556.8 -37.1005 22474.1
 15 08 2015  18 20  -14.4959 17924.9 -13557.7 -37.1023 22474.7
 15 08 2015  18 21  -14.4969 17924.4 -13557.1 -37.1019 22474.0
 15 08 2015  18 22  -14.4974 17924.0 -13556.5 -37.1014 22473.3
 15 08 2015  18 23  -14.4971 17923.6 -13557.5 -37.1038 22473.6
 15 08 2015  18 24  -14.4963 17924.1 -13557.1 -37.1023 22473.8
 15 08 2015  18 25  -14.4959 17924.1 -13557.5 -37.1032 22474.0
 15 08 2015  18 26  -14.4959 17923.9 -13557.5 -37.1036 22473.8
 15 08 2015  18 27  -14.4961 17923.6 -13557.3 -37.1036 22473.4
 15 08 2015  18 28  -14.4948 17923.6 -13557.5 -37.1040 22473.6
 15 08 2015  18 29  -14.4940 17923.6 -13557.2 -37.1033 22473.4
 15 08 2015  18 30  -14.4934 17923.3 -13556.8 -37.1029 22472.9
 15 08 2015  18 31  -14.4921 17923.2 -13557.4 -37.1045 22473.2
 15 08 2015  18 32  -14.4934 17921.7 -13556.6 -37.1050 22471.4
 15 08 2015  18 33  -14.4941 17920.8 -13556.4 -37.1060 22470.7
 15 08 2015  18 34  -14.4933 17921.1 -13556.7 -37.1061 22471.0
 15 08 2015  18 35  -14.4934 17920.7 -13556.0 -37.1054 22470.3
 15 08 2015  18 36  -14.4930 17920.3 -13556.5 -37.1071 22470.3
 15 08 2015  18 37  -14.4923 17919.9 -13556.7 -37.1081 22470.2
 15 08 2015  18 38  -14.4916 17919.7 -13556.5 -37.1080 22469.8
 15 08 2015  18 39  -14.4903 17919.6 -13556.5 -37.1081 22469.8
 15 08 2015  18 40  -14.4899 17919.3 -13556.8 -37.1092 22469.7
 15 08 2015  18 41  -14.4892 17918.9 -13556.3 -37.1088 22469.1
 15 08 2015  18 42  -14.4881 17918.6 -13556.7 -37.1099 22469.1
 15 08 2015  18 43  -14.4864 17918.8 -13556.6 -37.1096 22469.2
 15 08 2015  18 44  -14.4847 17919.0 -13557.4 -37.1107 22469.8
 15 08 2015  18 45  -14.4838 17919.5 -13557.4 -37.1101 22470.2
 15 08 2015  18 46  -14.4830 17919.7 -13557.5 -37.1100 22470.4
 15 08 2015  18 47  -14.4818 17919.7 -13556.8 -37.1085 22470.1
 15 08 2015  18 48  -14.4793 17919.7 -13557.4 -37.1097 22470.4
 15 08 2015  18 49  -14.4775 17919.5 -13557.5 -37.1103 22470.3
 15 08 2015  18 50  -14.4750 17918.9 -13557.4 -37.1110 22469.8
 15 08 2015  18 51  -14.4743 17918.4 -13557.4 -37.1117 22469.4
 15 08 2015  18 52  -14.4742 17917.9 -13557.6 -37.1129 22469.0
 15 08 2015  18 53  -14.4741 17918.0 -13557.8 -37.1132 22469.3
 15 08 2015  18 54  -14.4751 17918.4 -13558.0 -37.1130 22469.7
 15 08 2015  18 55  -14.4744 17918.9 -13558.4 -37.1129 22470.4
 15 08 2015  18 56  -14.4754 17918.3 -13558.5 -37.1141 22469.9
 15 08 2015  18 57  -14.4777 17917.3 -13558.0 -37.1146 22468.9
 15 08 2015  18 58  -14.4787 17916.7 -13558.3 -37.1162 22468.5
 15 08 2015  18 59  -14.4791 17916.2 -13558.1 -37.1165 22468.0
 15 08 2015  19 00  -14.4799 17915.3 -13558.1 -37.1179 22467.3
 15 08 2015  19 01  -14.4807 17915.1 -13558.2 -37.1185 22467.2
 15 08 2015  19 02  -14.4811 17915.5 -13558.6 -37.1187 22467.8
 15 08 2015  19 03  -14.4820 17915.7 -13558.3 -37.1178 22467.8
 15 08 2015  19 04  -14.4838 17916.1 -13558.4 -37.1174 22468.2
 15 08 2015  19 05  -14.4871 17915.8 -13558.6 -37.1182 22468.0
 15 08 2015  19 06  -14.4893 17915.3 -13557.9 -37.1175 22467.2
 15 08 2015  19 07  -14.4922 17914.6 -13557.9 -37.1186 22466.6
 15 08 2015  19 08  -14.4929 17914.2 -13558.0 -37.1194 22466.4
 15 08 2015  19 09  -14.4935 17914.1 -13557.9 -37.1195 22466.2
 15 08 2015  19 10  -14.4959 17913.8 -13558.1 -37.1202 22466.2
 15 08 2015  19 11  -14.4987 17913.8 -13558.6 -37.1213 22466.4
 15 08 2015  19 12  -14.5022 17913.1 -13557.7 -37.1205 22465.3
 15 08 2015  19 13  -14.5043 17912.6 -13557.9 -37.1217 22465.0
 15 08 2015  19 14  -14.5054 17911.7 -13557.9 -37.1230 22464.4
 15 08 2015  19 15  -14.5068 17911.6 -13557.7 -37.1229 22464.1
 15 08 2015  19 16  -14.5079 17911.5 -13557.6 -37.1229 22464.0
 15 08 2015  19 17  -14.5089 17911.0 -13558.1 -37.1246 22463.8
 15 08 2015  19 18  -14.5099 17910.0 -13557.7 -37.1253 22462.8
 15 08 2015  19 19  -14.5119 17909.3 -13557.9 -37.1266 22462.4
 15 08 2015  19 20  -14.5142 17908.9 -13557.7 -37.1270 22461.9
 15 08 2015  19 21  -14.5159 17908.0 -13558.2 -37.1293 22461.5
 15 08 2015  19 22  -14.5170 17907.5 -13557.8 -37.1294 22460.9
 15 08 2015  19 23  -14.5185 17907.2 -13557.9 -37.1298 22460.7
 15 08 2015  19 24  -14.5204 17907.1 -13557.4 -37.1292 22460.3
 15 08 2015  19 25  -14.5209 17907.1 -13557.4 -37.1292 22460.3
 15 08 2015  19 26  -14.5206 17908.0 -13558.1 -37.1292 22461.5
 15 08 2015  19 27  -14.5210 17908.4 -13558.0 -37.1285 22461.8
 15 08 2015  19 28  -14.5222 17907.6 -13557.3 -37.1281 22460.7
 15 08 2015  19 29  -14.5220 17907.3 -13557.4 -37.1290 22460.5
 15 08 2015  19 30  -14.5207 17907.6 -13557.2 -37.1280 22460.7
 15 08 2015  19 31  -14.5200 17907.9 -13557.8 -37.1287 22461.2
 15 08 2015  19 32  -14.5190 17908.7 -13558.1 -37.1282 22462.1
 15 08 2015  19 33  -14.5201 17908.6 -13558.5 -37.1291 22462.2
 15 08 2015  19 34  -14.5194 17908.4 -13557.9 -37.1283 22461.7
 15 08 2015  19 35  -14.5195 17907.8 -13558.0 -37.1294 22461.2
 15 08 2015  19 36  -14.5216 17906.8 -13557.1 -37.1289 22459.9
 15 08 2015  19 37  -14.5230 17905.9 -13556.8 -37.1299 22459.0
 15 08 2015  19 38  -14.5241 17905.0 -13557.7 -37.1330 22458.9
 15 08 2015  19 39  -14.5252 17904.5 -13557.4 -37.1332 22458.2
 15 08 2015  19 40  -14.5271 17903.7 -13556.5 -37.1326 22457.0
 15 08 2015  19 41  -14.5294 17903.5 -13556.5 -37.1329 22456.9
 15 08 2015  19 42  -14.5307 17903.8 -13557.4 -37.1341 22457.7
 15 08 2015  19 43  -14.5327 17903.1 -13556.9 -37.1343 22456.8
 15 08 2015  19 44  -14.5356 17902.2 -13556.5 -37.1348 22455.9
 15 08 2015  19 45  -14.5366 17902.3 -13556.6 -37.1350 22456.0
 15 08 2015  19 46  -14.5360 17902.7 -13557.6 -37.1363 22456.9
 15 08 2015  19 47  -14.5359 17903.6 -13556.5 -37.1327 22457.0
 15 08 2015  19 48  -14.5360 17904.6 -13556.8 -37.1317 22457.9
 15 08 2015  19 49  -14.5372 17904.7 -13557.8 -37.1336 22458.7
 15 08 2015  19 50  -14.5378 17904.9 -13556.7 -37.1311 22458.1
 15 08 2015  19 51  -14.5378 17905.3 -13557.0 -37.1311 22458.6
 15 08 2015  19 52  -14.5386 17906.2 -13557.7 -37.1313 22459.8
 15 08 2015  19 53  -14.5391 17906.5 -13557.1 -37.1295 22459.7
 15 08 2015  19 54  -14.5392 17906.4 -13557.3 -37.1299 22459.8
 15 08 2015  19 55  -14.5386 17906.1 -13556.3 -37.1285 22458.9
 15 08 2015  19 56  -14.5385 17905.6 -13556.2 -37.1291 22458.4
 15 08 2015  19 57  -14.5385 17905.1 -13556.5 -37.1303 22458.2
 15 08 2015  19 58  -14.5380 17905.3 -13556.2 -37.1295 22458.2
 15 08 2015  19 59  -14.5374 17905.2 -13556.4 -37.1300 22458.3
 15 08 2015  20 00  -14.5370 17905.2 -13556.1 -37.1295 22458.1
 15 08 2015  20 01  -14.5369 17904.6 -13556.0 -37.1303 22457.5
 15 08 2015  20 02  -14.5375 17904.1 -13555.8 -37.1306 22457.0
 15 08 2015  20 03  -14.5372 17903.8 -13556.1 -37.1316 22457.0
 15 08 2015  20 04  -14.5375 17903.6 -13555.7 -37.1310 22456.5
 15 08 2015  20 05  -14.5373 17903.5 -13556.2 -37.1322 22456.8
 15 08 2015  20 06  -14.5369 17903.7 -13556.1 -37.1317 22456.8
 15 08 2015  20 07  -14.5366 17903.9 -13555.8 -37.1309 22456.8
 15 08 2015  20 08  -14.5364 17905.1 -13556.5 -37.1304 22458.3
 15 08 2015  20 09  -14.5367 17906.1 -13556.0 -37.1278 22458.7
 15 08 2015  20 10  -14.5367 17906.8 -13555.9 -37.1265 22459.2
 15 08 2015  20 11  -14.5361 17907.8 -13556.3 -37.1258 22460.3
 15 08 2015  20 12  -14.5351 17908.6 -13556.3 -37.1245 22460.9
 15 08 2015  20 13  -14.5347 17908.8 -13556.4 -37.1245 22461.1
 15 08 2015  20 14  -14.5346 17908.7 -13555.3 -37.1224 22460.3
 15 08 2015  20 15  -14.5342 17908.7 -13555.6 -37.1230 22460.6
 15 08 2015  20 16  -14.5341 17908.8 -13555.5 -37.1226 22460.6
 15 08 2015  20 17  -14.5340 17908.6 -13555.3 -37.1225 22460.3
 15 08 2015  20 18  -14.5345 17908.2 -13555.2 -37.1230 22459.9
 15 08 2015  20 19  -14.5347 17908.2 -13555.4 -37.1235 22460.0
 15 08 2015  20 20  -14.5349 17907.9 -13555.6 -37.1242 22459.9
 15 08 2015  20 21  -14.5353 17907.9 -13555.8 -37.1246 22460.0
 15 08 2015  20 22  -14.5354 17908.0 -13556.1 -37.1252 22460.3
 15 08 2015  20 23  -14.5361 17908.0 -13556.1 -37.1250 22460.3
 15 08 2015  20 24  -14.5365 17908.4 -13555.1 -37.1226 22460.0
 15 08 2015  20 25  -14.5359 17909.0 -13555.9 -37.1232 22460.9
 15 08 2015  20 26  -14.5365 17909.4 -13555.8 -37.1223 22461.2
 15 08 2015  20 27  -14.5370 17909.8 -13555.4 -37.1209 22461.3
 15 08 2015  20 28  -14.5382 17909.5 -13554.9 -37.1204 22460.8
 15 08 2015  20 29  -14.5385 17909.6 -13555.2 -37.1209 22461.0
 15 08 2015  20 30  -14.5392 17909.4 -13556.3 -37.1233 22461.5
 15 08 2015  20 31  -14.5397 17909.3 -13555.8 -37.1225 22461.2
 15 08 2015  20 32  -14.5404 17909.5 -13555.5 -37.1217 22461.1
 15 08 2015  20 33  -14.5411 17909.6 -13556.0 -37.1226 22461.5
 15 08 2015  20 34  -14.5419 17910.0 -13555.2 -37.1204 22461.3
 15 08 2015  20 35  -14.5422 17910.2 -13555.6 -37.1207 22461.8
 15 08 2015  20 36  -14.5426 17910.6 -13555.5 -37.1198 22462.0
 15 08 2015  20 37  -14.5432 17910.5 -13555.5 -37.1200 22461.9
 15 08 2015  20 38  -14.5440 17910.9 -13555.4 -37.1194 22462.2
 15 08 2015  20 39  -14.5443 17910.9 -13555.9 -37.1201 22462.5
 15 08 2015  20 40  -14.5450 17910.6 -13555.6 -37.1199 22462.1
 15 08 2015  20 41  -14.5459 17911.0 -13555.2 -37.1186 22462.2
 15 08 2015  20 42  -14.5470 17911.5 -13555.3 -37.1180 22462.6
 15 08 2015  20 43  -14.5483 17911.6 -13555.5 -37.1183 22462.8
 15 08 2015  20 44  -14.5488 17911.6 -13555.5 -37.1183 22462.7
 15 08 2015  20 45  -14.5495 17911.4 -13555.3 -37.1183 22462.5
 15 08 2015  20 46  -14.5507 17911.1 -13555.4 -37.1189 22462.3
 15 08 2015  20 47  -14.5513 17910.9 -13555.3 -37.1190 22462.2
 15 08 2015  20 48  -14.5513 17910.9 -13555.5 -37.1193 22462.3
 15 08 2015  20 49  -14.5510 17910.9 -13555.4 -37.1192 22462.2
 15 08 2015  20 50  -14.5500 17910.9 -13555.5 -37.1195 22462.2
 15 08 2015  20 51  -14.5490 17910.6 -13555.5 -37.1200 22462.0
 15 08 2015  20 52  -14.5490 17910.4 -13555.5 -37.1202 22461.8
 15 08 2015  20 53  -14.5484 17910.1 -13555.4 -37.1204 22461.6
 15 08 2015  20 54  -14.5486 17909.9 -13555.5 -37.1209 22461.5
 15 08 2015  20 55  -14.5484 17909.6 -13555.6 -37.1217 22461.2
 15 08 2015  20 56  -14.5485 17909.2 -13555.5 -37.1221 22460.9
 15 08 2015  20 57  -14.5498 17909.0 -13555.5 -37.1223 22460.7
 15 08 2015  20 58  -14.5496 17909.2 -13555.6 -37.1222 22461.0
 15 08 2015  20 59  -14.5490 17909.5 -13555.8 -37.1222 22461.3
 15 08 2015  21 00  -14.5489 17909.6 -13555.8 -37.1220 22461.3
 15 08 2015  21 01  -14.5489 17909.3 -13555.8 -37.1225 22461.1
 15 08 2015  21 02  -14.5488 17908.9 -13555.6 -37.1226 22460.7
 15 08 2015  21 03  -14.5495 17908.2 -13555.5 -37.1236 22460.1
 15 08 2015  21 04  -14.5507 17907.8 -13555.4 -37.1240 22459.7
 15 08 2015  21 05  -14.5516 17907.4 -13555.5 -37.1248 22459.5
 15 08 2015  21 06  -14.5528 17907.4 -13555.6 -37.1249 22459.5
 15 08 2015  21 07  -14.5540 17907.1 -13555.5 -37.1253 22459.2
 15 08 2015  21 08  -14.5555 17906.7 -13555.5 -37.1258 22458.9
 15 08 2015  21 09  -14.5561 17906.9 -13555.6 -37.1258 22459.1
 15 08 2015  21 10  -14.5574 17907.0 -13555.5 -37.1255 22459.1
 15 08 2015  21 11  -14.5598 17906.6 -13555.4 -37.1259 22458.8
 15 08 2015  21 12  -14.5620 17906.6 -13555.5 -37.1262 22458.8
 15 08 2015  21 13  -14.5637 17906.6 -13555.2 -37.1255 22458.6
 15 08 2015  21 14  -14.5644 17906.7 -13555.0 -37.1249 22458.6
 15 08 2015  21 15  -14.5653 17906.8 -13555.6 -37.1258 22459.0
 15 08 2015  21 16  -14.5662 17907.1 -13554.9 -37.1240 22458.9
 15 08 2015  21 17  -14.5665 17907.9 -13555.4 -37.1238 22459.7
 15 08 2015  21 18  -14.5674 17908.6 -13555.3 -37.1226 22460.3
 15 08 2015  21 19  -14.5673 17909.4 -13555.5 -37.1218 22461.0
 15 08 2015  21 20  -14.5670 17909.9 -13555.2 -37.1204 22461.3
 15 08 2015  21 21  -14.5683 17909.8 -13554.9 -37.1200 22461.0
 15 08 2015  21 22  -14.5690 17909.9 -13554.7 -37.1193 22461.0
 15 08 2015  21 23  -14.5685 17911.1 -13555.5 -37.1191 22462.3
 15 08 2015  21 24  -14.5691 17910.7 -13555.6 -37.1200 22462.1
 15 08 2015  21 25  -14.5698 17910.6 -13554.4 -37.1176 22461.3
 15 08 2015  21 26  -14.5694 17911.0 -13553.8 -37.1158 22461.2
 15 08 2015  21 27  -14.5688 17911.7 -13554.6 -37.1163 22462.3
 15 08 2015  21 28  -14.5678 17912.5 -13554.4 -37.1148 22462.8
 15 08 2015  21 29  -14.5670 17913.7 -13554.4 -37.1130 22463.8
 15 08 2015  21 30  -14.5662 17913.9 -13554.4 -37.1125 22464.0
 15 08 2015  21 31  -14.5669 17913.8 -13553.6 -37.1112 22463.4
 15 08 2015  21 32  -14.5659 17913.9 -13553.9 -37.1116 22463.6
 15 08 2015  21 33  -14.5644 17914.0 -13553.6 -37.1109 22463.6
 15 08 2015  21 34  -14.5641 17913.2 -13552.8 -37.1104 22462.4
 15 08 2015  21 35  -14.5647 17912.2 -13552.3 -37.1109 22461.3
 15 08 2015  21 36  -14.5653 17910.7 -13552.9 -37.1145 22460.5
 15 08 2015  21 37  -14.5644 17910.6 -13553.0 -37.1148 22460.5
 15 08 2015  21 38  -14.5627 17911.4 -13553.7 -37.1150 22461.5
 15 08 2015  21 39  -14.5619 17911.2 -13553.2 -37.1142 22461.1
 15 08 2015  21 40  -14.5606 17911.0 -13552.8 -37.1138 22460.6
 15 08 2015  21 41  -14.5598 17910.0 -13552.5 -37.1147 22459.7
 15 08 2015  21 42  -14.5596 17908.7 -13553.2 -37.1181 22459.1
 15 08 2015  21 43  -14.5604 17907.2 -13552.5 -37.1191 22457.5
 15 08 2015  21 44  -14.5601 17906.4 -13552.2 -37.1196 22456.6
 15 08 2015  21 45  -14.5587 17905.9 -13552.5 -37.1210 22456.4
 15 08 2015  21 46  -14.5580 17905.9 -13552.8 -37.1218 22456.6
 15 08 2015  21 47  -14.5581 17906.7 -13553.7 -37.1223 22457.8
 15 08 2015  21 48  -14.5583 17907.3 -13553.4 -37.1207 22458.1
 15 08 2015  21 49  -14.5584 17907.3 -13553.2 -37.1202 22458.0
 15 08 2015  21 50  -14.5584 17907.0 -13553.3 -37.1211 22457.8
 15 08 2015  21 51  -14.5587 17906.8 -13553.4 -37.1215 22457.7
 15 08 2015  21 52  -14.5579 17907.4 -13553.9 -37.1215 22458.4
 15 08 2015  21 53  -14.5571 17908.0 -13553.6 -37.1201 22458.8
 15 08 2015  21 54  -14.5560 17908.5 -13553.3 -37.1186 22459.0
 15 08 2015  21 55  -14.5555 17909.0 -13553.4 -37.1181 22459.5
 15 08 2015  21 56  -14.5545 17909.2 -13554.0 -37.1189 22459.9
 15 08 2015  21 57  -14.5538 17910.1 -13554.1 -37.1178 22460.7
 15 08 2015  21 58  -14.5531 17911.0 -13553.6 -37.1155 22461.1
 15 08 2015  21 59  -14.5527 17911.4 -13553.8 -37.1153 22461.6
 15 08 2015  22 00  -14.5535 17911.9 -13553.5 -37.1137 22461.9
 15 08 2015  22 01  -14.5539 17912.3 -13553.4 -37.1132 22462.1
 15 08 2015  22 02  -14.5538 17912.5 -13553.4 -37.1125 22462.3
 15 08 2015  22 03  -14.5556 17912.2 -13552.9 -37.1122 22461.7
 15 08 2015  22 04  -14.5574 17911.1 -13552.7 -37.1135 22460.7
 15 08 2015  22 05  -14.5591 17910.2 -13553.0 -37.1154 22460.2
 15 08 2015  22 06  -14.5597 17909.9 -13552.1 -37.1140 22459.4
 15 08 2015  22 07  -14.5592 17910.3 -13553.0 -37.1152 22460.3
 15 08 2015  22 08  -14.5585 17910.6 -13553.1 -37.1152 22460.5
 15 08 2015  22 09  -14.5584 17910.4 -13552.4 -37.1138 22460.0
 15 08 2015  22 10  -14.5598 17910.1 -13552.6 -37.1147 22459.8
 15 08 2015  22 11  -14.5623 17909.3 -13552.2 -37.1151 22459.0
 15 08 2015  22 12  -14.5638 17909.0 -13552.7 -37.1168 22459.0
 15 08 2015  22 13  -14.5650 17909.2 -13552.3 -37.1155 22458.9
 15 08 2015  22 14  -14.5666 17909.0 -13552.7 -37.1166 22459.0
 15 08 2015  22 15  -14.5667 17909.6 -13553.0 -37.1162 22459.7
 15 08 2015  22 16  -14.5675 17909.6 -13552.6 -37.1155 22459.4
 15 08 2015  22 17  -14.5680 17909.9 -13551.9 -37.1137 22459.3
 15 08 2015  22 18  -14.5671 17910.5 -13552.6 -37.1142 22460.2
 15 08 2015  22 19  -14.5657 17911.0 -13552.8 -37.1138 22460.7
 15 08 2015  22 20  -14.5649 17911.2 -13552.8 -37.1135 22460.8
 15 08 2015  22 21  -14.5647 17911.7 -13553.1 -37.1132 22461.4
 15 08 2015  22 22  -14.5635 17912.4 -13552.5 -37.1112 22461.6
 15 08 2015  22 23  -14.5631 17912.8 -13552.1 -37.1097 22461.7
 15 08 2015  22 24  -14.5621 17913.0 -13552.4 -37.1098 22462.0
 15 08 2015  22 25  -14.5618 17913.2 -13553.0 -37.1108 22462.5
 15 08 2015  22 26  -14.5615 17913.1 -13553.2 -37.1114 22462.6
 15 08 2015  22 27  -14.5614 17913.3 -13552.2 -37.1091 22462.1
 15 08 2015  22 28  -14.5606 17913.7 -13552.2 -37.1084 22462.4
 15 08 2015  22 29  -14.5594 17914.3 -13553.0 -37.1093 22463.4
 15 08 2015  22 30  -14.5583 17914.5 -13552.3 -37.1075 22463.2
 15 08 2015  22 31  -14.5581 17914.9 -13551.9 -37.1058 22463.3
 15 08 2015  22 32  -14.5574 17914.9 -13552.1 -37.1064 22463.4
 15 08 2015  22 33  -14.5573 17915.2 -13552.0 -37.1057 22463.5
 15 08 2015  22 34  -14.5571 17915.3 -13551.9 -37.1053 22463.6
 15 08 2015  22 35  -14.5577 17915.2 -13551.8 -37.1054 22463.4
 15 08 2015  22 36  -14.5578 17914.7 -13551.5 -37.1055 22462.9
 15 08 2015  22 37  -14.5568 17915.1 -13551.7 -37.1053 22463.2
 15 08 2015  22 38  -14.5550 17915.6 -13551.9 -37.1048 22463.8
 15 08 2015  22 39  -14.5534 17915.8 -13551.6 -37.1039 22463.8
 15 08 2015  22 40  -14.5523 17915.7 -13551.5 -37.1040 22463.7
 15 08 2015  22 41  -14.5506 17915.9 -13551.5 -37.1037 22463.8
 15 08 2015  22 42  -14.5485 17916.1 -13551.7 -37.1037 22464.1
 15 08 2015  22 43  -14.5474 17916.5 -13551.6 -37.1030 22464.3
 15 08 2015  22 44  -14.5463 17916.4 -13551.8 -37.1033 22464.4
 15 08 2015  22 45  -14.5461 17915.9 -13551.4 -37.1033 22463.7
 15 08 2015  22 46  -14.5455 17915.4 -13551.9 -37.1052 22463.7
 15 08 2015  22 47  -14.5450 17915.2 -13551.9 -37.1054 22463.5
 15 08 2015  22 48  -14.5455 17914.7 -13551.3 -37.1051 22462.7
 15 08 2015  22 49  -14.5462 17914.3 -13551.4 -37.1059 22462.5
 15 08 2015  22 50  -14.5468 17913.7 -13551.5 -37.1068 22462.1
 15 08 2015  22 51  -14.5475 17913.0 -13550.7 -37.1065 22461.0
 15 08 2015  22 52  -14.5478 17912.6 -13551.2 -37.1081 22460.9
 15 08 2015  22 53  -14.5476 17912.1 -13551.3 -37.1090 22460.7
 15 08 2015  22 54  -14.5473 17911.3 -13551.5 -37.1108 22460.2
 15 08 2015  22 55  -14.5475 17910.2 -13551.7 -37.1127 22459.4
 15 08 2015  22 56  -14.5472 17909.1 -13551.5 -37.1141 22458.4
 15 08 2015  22 57  -14.5476 17907.8 -13551.3 -37.1157 22457.3
 15 08 2015  22 58  -14.5484 17906.4 -13551.9 -37.1190 22456.4
 15 08 2015  22 59  -14.5500 17904.8 -13551.2 -37.1201 22454.8
 15 08 2015  23 00  -14.5520 17903.0 -13551.7 -37.1238 22453.7
 15 08 2015  23 01  -14.5546 17901.0 -13551.3 -37.1262 22451.8
 15 08 2015  23 02  -14.5566 17899.2 -13551.1 -37.1285 22450.2
 15 08 2015  23 03  -14.5584 17897.6 -13551.9 -37.1325 22449.4
 15 08 2015  23 04  -14.5608 17895.8 -13552.4 -37.1364 22448.3
 15 08 2015  23 05  -14.5625 17894.6 -13551.9 -37.1373 22447.0
 15 08 2015  23 06  -14.5639 17893.5 -13552.8 -37.1408 22446.8
 15 08 2015  23 07  -14.5664 17892.8 -13553.0 -37.1424 22446.3
 15 08 2015  23 08  -14.5676 17892.2 -13553.7 -37.1445 22446.3
 15 08 2015  23 09  -14.5684 17891.7 -13554.1 -37.1461 22446.1
 15 08 2015  23 10  -14.5692 17891.6 -13554.1 -37.1463 22446.0
 15 08 2015  23 11  -14.5702 17892.0 -13553.5 -37.1444 22445.9
 15 08 2015  23 12  -14.5713 17892.5 -13553.7 -37.1441 22446.5
 15 08 2015  23 13  -14.5722 17892.9 -13554.0 -37.1441 22447.0
 15 08 2015  23 14  -14.5727 17893.2 -13554.9 -37.1454 22447.8
 15 08 2015  23 15  -14.5729 17893.5 -13554.7 -37.1447 22447.9
 15 08 2015  23 16  -14.5732 17893.5 -13553.6 -37.1424 22447.3
 15 08 2015  23 17  -14.5734 17893.7 -13554.5 -37.1440 22447.9
 15 08 2015  23 18  -14.5738 17893.9 -13554.8 -37.1442 22448.2
 15 08 2015  23 19  -14.5736 17894.5 -13555.3 -37.1443 22449.0
 15 08 2015  23 20  -14.5738 17894.6 -13555.1 -37.1438 22449.0
 15 08 2015  23 21  -14.5738 17895.2 -13554.4 -37.1414 22449.1
 15 08 2015  23 22  -14.5734 17895.7 -13554.8 -37.1414 22449.7
 15 08 2015  23 23  -14.5728 17896.0 -13555.0 -37.1414 22450.1
 15 08 2015  23 24  -14.5723 17896.3 -13554.7 -37.1403 22450.1
 15 08 2015  23 25  -14.5715 17896.7 -13554.5 -37.1393 22450.3
 15 08 2015  23 26  -14.5709 17896.9 -13554.6 -37.1391 22450.5
 15 08 2015  23 27  -14.5710 17896.9 -13554.5 -37.1390 22450.5
 15 08 2015  23 28  -14.5713 17896.8 -13554.4 -37.1389 22450.3
 15 08 2015  23 29  -14.5717 17896.7 -13554.4 -37.1391 22450.3
 15 08 2015  23 30  -14.5720 17896.7 -13554.4 -37.1390 22450.2
 15 08 2015  23 31  -14.5726 17896.7 -13554.8 -37.1399 22450.5
 15 08 2015  23 32  -14.5734 17896.6 -13555.1 -37.1406 22450.6
 15 08 2015  23 33  -14.5746 17896.6 -13555.0 -37.1404 22450.5
 15 08 2015  23 34  -14.5758 17896.5 -13554.4 -37.1393 22450.1
 15 08 2015  23 35  -14.5766 17896.6 -13555.0 -37.1404 22450.5
 15 08 2015  23 36  -14.5765 17896.6 -13554.7 -37.1398 22450.3
 15 08 2015  23 37  -14.5764 17896.5 -13554.4 -37.1392 22450.1
 15 08 2015  23 38  -14.5762 17896.3 -13554.1 -37.1392 22449.7
 15 08 2015  23 39  -14.5761 17895.9 -13554.7 -37.1409 22449.8
 15 08 2015  23 40  -14.5756 17895.7 -13554.1 -37.1400 22449.3
 15 08 2015  23 41  -14.5748 17895.3 -13553.8 -37.1400 22448.8
 15 08 2015  23 42  -14.5738 17895.0 -13553.9 -37.1407 22448.6
 15 08 2015  23 43  -14.5730 17894.5 -13554.9 -37.1435 22448.8
 15 08 2015  23 44  -14.5729 17894.5 -13554.7 -37.1430 22448.6
 15 08 2015  23 45  -14.5726 17894.1 -13554.3 -37.1428 22448.1
 15 08 2015  23 46  -14.5720 17893.8 -13554.2 -37.1432 22447.8
 15 08 2015  23 47  -14.5719 17893.3 -13554.4 -37.1443 22447.6
 15 08 2015  23 48  -14.5721 17892.8 -13554.1 -37.1445 22447.0
 15 08 2015  23 49  -14.5732 17891.9 -13554.2 -37.1460 22446.3
 15 08 2015  23 50  -14.5747 17891.1 -13554.7 -37.1483 22446.0
 15 08 2015  23 51  -14.5761 17889.8 -13554.6 -37.1502 22444.9
 15 08 2015  23 52  -14.5775 17888.9 -13554.3 -37.1509 22443.9
 15 08 2015  23 53  -14.5791 17888.0 -13554.5 -37.1527 22443.4
 15 08 2015  23 54  -14.5804 17887.7 -13554.8 -37.1537 22443.3
 15 08 2015  23 55  -14.5820 17887.4 -13555.0 -37.1545 22443.2
 15 08 2015  23 56  -14.5837 17886.6 -13555.4 -37.1567 22442.8
 15 08 2015  23 57  -14.5850 17886.4 -13555.1 -37.1563 22442.5
 15 08 2015  23 58  -14.5874 17885.8 -13555.2 -37.1577 22442.0
