SAO MARTINHO DA SERRA EMBRACE-06 <076> 1 Min. Reported data

 DD MM YYYY  HH MM   D(Deg)  H(nT)   Z(nT)   I(Deg)   F(nT)

 17 03 2015  00 00  -14.3880 18000.6 -13521.7 -36.9131 22513.6
 17 03 2015  00 01  -14.3877 18000.7 -13521.7 -36.9129 22513.6
 17 03 2015  00 02  -14.3876 18000.5 -13521.6 -36.9131 22513.4
 17 03 2015  00 03  -14.3878 18000.1 -13521.5 -36.9134 22513.0
 17 03 2015  00 04  -14.3882 17999.7 -13521.4 -36.9139 22512.6
 17 03 2015  00 05  -14.3885 17999.5 -13521.6 -36.9145 22512.6
 17 03 2015  00 06  -14.3889 17999.7 -13521.5 -36.9141 22512.7
 17 03 2015  00 07  -14.3891 18000.2 -13521.8 -36.9139 22513.3
 17 03 2015  00 08  -14.3888 18001.1 -13522.1 -36.9131 22514.1
 17 03 2015  00 09  -14.3884 18002.2 -13522.2 -36.9116 22515.1
 17 03 2015  00 10  -14.3875 18003.2 -13522.3 -36.9104 22515.9
 17 03 2015  00 11  -14.3870 18003.6 -13522.3 -36.9096 22516.3
 17 03 2015  00 12  -14.3870 18003.4 -13522.1 -36.9095 22516.0
 17 03 2015  00 13  -14.3868 18002.9 -13521.9 -36.9100 22515.5
 17 03 2015  00 14  -14.3859 18002.2 -13521.8 -36.9108 22514.8
 17 03 2015  00 15  -14.3858 18001.5 -13521.7 -36.9117 22514.2
 17 03 2015  00 16  -14.3860 18000.9 -13521.7 -36.9126 22513.8
 17 03 2015  00 17  -14.3866 18000.3 -13521.8 -36.9138 22513.3
 17 03 2015  00 18  -14.3867 17999.8 -13521.8 -36.9146 22512.9
 17 03 2015  00 19  -14.3860 18000.0 -13522.1 -36.9147 22513.3
 17 03 2015  00 20  -14.3862 17999.0 -13522.1 -36.9162 22512.5
 17 03 2015  00 21  -14.3861 17998.6 -13522.1 -36.9169 22512.1
 17 03 2015  00 22  -14.3864 17998.8 -13522.2 -36.9168 22512.3
 17 03 2015  00 23  -14.3867 17998.9 -13522.4 -36.9172 22512.5
 17 03 2015  00 24  -14.3865 17998.9 -13522.4 -36.9172 22512.6
 17 03 2015  00 25  -14.3865 17998.9 -13522.6 -36.9175 22512.7
 17 03 2015  00 26  -14.3870 17998.7 -13522.4 -36.9174 22512.5
 17 03 2015  00 27  -14.3872 17998.8 -13522.5 -36.9175 22512.5
 17 03 2015  00 28  -14.3872 17999.0 -13522.8 -36.9177 22512.9
 17 03 2015  00 29  -14.3871 17999.1 -13522.8 -36.9176 22513.0
 17 03 2015  00 30  -14.3867 17999.4 -13522.9 -36.9173 22513.3
 17 03 2015  00 31  -14.3865 17999.6 -13522.9 -36.9169 22513.4
 17 03 2015  00 32  -14.3861 18000.3 -13523.0 -36.9162 22514.0
 17 03 2015  00 33  -14.3858 18000.9 -13523.0 -36.9152 22514.5
 17 03 2015  00 34  -14.3856 18000.8 -13522.9 -36.9152 22514.4
 17 03 2015  00 35  -14.3858 18000.0 -13522.6 -36.9158 22513.6
 17 03 2015  00 36  -14.3861 17998.8 -13522.5 -36.9174 22512.5
 17 03 2015  00 37  -14.3864 17997.8 -13522.3 -36.9185 22511.7
 17 03 2015  00 38  -14.3865 17997.4 -13522.5 -36.9195 22511.4
 17 03 2015  00 39  -14.3865 17997.1 -13522.6 -36.9203 22511.3
 17 03 2015  00 40  -14.3867 17997.1 -13522.8 -36.9206 22511.4
 17 03 2015  00 41  -14.3873 17997.0 -13522.8 -36.9208 22511.3
 17 03 2015  00 42  -14.3880 17996.3 -13522.9 -36.9221 22510.8
 17 03 2015  00 43  -14.3887 17995.8 -13522.7 -36.9225 22510.3
 17 03 2015  00 44  -14.3891 17995.7 -13522.9 -36.9230 22510.4
 17 03 2015  00 45  -14.3895 17995.6 -13523.0 -36.9233 22510.3
 17 03 2015  00 46  -14.3901 17995.6 -13523.0 -36.9234 22510.3
 17 03 2015  00 47  -14.3905 17995.5 -13523.1 -36.9238 22510.3
 17 03 2015  00 48  -14.3908 17995.3 -13523.2 -36.9242 22510.2
 17 03 2015  00 49  -14.3909 17995.3 -13523.2 -36.9242 22510.2
 17 03 2015  00 50  -14.3910 17995.4 -13523.3 -36.9244 22510.3
 17 03 2015  00 51  -14.3914 17995.4 -13523.4 -36.9244 22510.4
 17 03 2015  00 52  -14.3916 17995.5 -13523.5 -36.9245 22510.5
 17 03 2015  00 53  -14.3920 17995.4 -13523.4 -36.9245 22510.4
 17 03 2015  00 54  -14.3922 17995.4 -13523.4 -36.9245 22510.4
 17 03 2015  00 55  -14.3921 17995.4 -13523.5 -36.9247 22510.5
 17 03 2015  00 56  -14.3921 17995.3 -13523.5 -36.9247 22510.3
 17 03 2015  00 57  -14.3921 17995.4 -13523.6 -36.9249 22510.5
 17 03 2015  00 58  -14.3923 17995.6 -13523.7 -36.9247 22510.7
 17 03 2015  00 59  -14.3924 17995.4 -13523.7 -36.9250 22510.5
 17 03 2015  01 00  -14.3925 17995.4 -13523.6 -36.9249 22510.5
 17 03 2015  01 01  -14.3924 17995.3 -13523.6 -36.9250 22510.4
 17 03 2015  01 02  -14.3925 17995.2 -13523.6 -36.9253 22510.3
 17 03 2015  01 03  -14.3928 17995.2 -13523.6 -36.9253 22510.3
 17 03 2015  01 04  -14.3928 17995.2 -13523.8 -36.9255 22510.4
 17 03 2015  01 05  -14.3927 17995.4 -13523.8 -36.9254 22510.6
 17 03 2015  01 06  -14.3922 17995.6 -13523.8 -36.9250 22510.7
 17 03 2015  01 07  -14.3919 17995.5 -13523.9 -36.9253 22510.7
 17 03 2015  01 08  -14.3917 17995.6 -13523.9 -36.9252 22510.9
 17 03 2015  01 09  -14.3916 17996.1 -13524.0 -36.9247 22511.3
 17 03 2015  01 10  -14.3913 17996.3 -13524.2 -36.9246 22511.6
 17 03 2015  01 11  -14.3907 17996.5 -13524.1 -36.9242 22511.7
 17 03 2015  01 12  -14.3902 17996.5 -13524.1 -36.9242 22511.7
 17 03 2015  01 13  -14.3900 17996.8 -13524.2 -36.9239 22512.0
 17 03 2015  01 14  -14.3898 17996.9 -13524.1 -36.9237 22512.0
 17 03 2015  01 15  -14.3896 17997.0 -13524.1 -36.9236 22512.1
 17 03 2015  01 16  -14.3893 17997.0 -13524.1 -36.9235 22512.1
 17 03 2015  01 17  -14.3890 17996.9 -13524.3 -36.9239 22512.1
 17 03 2015  01 18  -14.3890 17996.8 -13524.0 -36.9237 22511.9
 17 03 2015  01 19  -14.3892 17996.6 -13524.0 -36.9239 22511.7
 17 03 2015  01 20  -14.3895 17996.5 -13524.1 -36.9242 22511.6
 17 03 2015  01 21  -14.3896 17996.2 -13524.1 -36.9246 22511.4
 17 03 2015  01 22  -14.3897 17996.0 -13524.0 -36.9248 22511.2
 17 03 2015  01 23  -14.3897 17995.9 -13524.1 -36.9250 22511.2
 17 03 2015  01 24  -14.3898 17995.9 -13524.1 -36.9251 22511.2
 17 03 2015  01 25  -14.3902 17995.9 -13524.1 -36.9252 22511.2
 17 03 2015  01 26  -14.3904 17995.9 -13524.2 -36.9252 22511.2
 17 03 2015  01 27  -14.3907 17995.9 -13524.1 -36.9253 22511.2
 17 03 2015  01 28  -14.3908 17995.7 -13524.1 -36.9255 22511.0
 17 03 2015  01 29  -14.3909 17995.5 -13524.1 -36.9258 22510.9
 17 03 2015  01 30  -14.3913 17995.3 -13524.1 -36.9261 22510.7
 17 03 2015  01 31  -14.3915 17995.3 -13524.1 -36.9259 22510.7
 17 03 2015  01 32  -14.3913 17995.4 -13524.2 -36.9260 22510.9
 17 03 2015  01 33  -14.3910 17995.5 -13524.2 -36.9261 22510.9
 17 03 2015  01 34  -14.3907 17995.4 -13524.1 -36.9260 22510.8
 17 03 2015  01 35  -14.3904 17995.3 -13524.3 -36.9264 22510.8
 17 03 2015  01 36  -14.3901 17995.5 -13524.3 -36.9263 22511.0
 17 03 2015  01 37  -14.3899 17995.3 -13524.4 -36.9267 22510.9
 17 03 2015  01 38  -14.3899 17995.2 -13524.3 -36.9267 22510.7
 17 03 2015  01 39  -14.3903 17995.0 -13524.3 -36.9269 22510.6
 17 03 2015  01 40  -14.3906 17994.8 -13524.3 -36.9272 22510.4
 17 03 2015  01 41  -14.3909 17994.7 -13524.2 -36.9272 22510.3
 17 03 2015  01 42  -14.3912 17994.6 -13524.3 -36.9275 22510.3
 17 03 2015  01 43  -14.3911 17994.6 -13524.4 -36.9276 22510.3
 17 03 2015  01 44  -14.3910 17994.6 -13524.4 -36.9277 22510.3
 17 03 2015  01 45  -14.3906 17994.6 -13524.4 -36.9278 22510.3
 17 03 2015  01 46  -14.3899 17994.5 -13524.4 -36.9279 22510.2
 17 03 2015  01 47  -14.3896 17994.8 -13524.6 -36.9278 22510.6
 17 03 2015  01 48  -14.3906 17994.6 -13524.5 -36.9280 22510.4
 17 03 2015  01 49  -14.3914 17993.9 -13524.3 -36.9286 22509.7
 17 03 2015  01 50  -14.3916 17994.1 -13524.4 -36.9285 22510.0
 17 03 2015  01 51  -14.3921 17994.1 -13524.4 -36.9286 22509.9
 17 03 2015  01 52  -14.3921 17994.4 -13524.6 -36.9285 22510.3
 17 03 2015  01 53  -14.3921 17994.8 -13524.7 -36.9282 22510.7
 17 03 2015  01 54  -14.3910 17995.4 -13524.8 -36.9273 22511.2
 17 03 2015  01 55  -14.3896 17996.4 -13524.9 -36.9259 22512.1
 17 03 2015  01 56  -14.3871 17997.6 -13525.2 -36.9247 22513.2
 17 03 2015  01 57  -14.3856 17999.1 -13525.3 -36.9227 22514.5
 17 03 2015  01 58  -14.3857 17999.7 -13525.3 -36.9218 22514.9
 17 03 2015  01 59  -14.3865 17999.2 -13524.9 -36.9217 22514.3
 17 03 2015  02 00  -14.3872 17998.0 -13524.5 -36.9227 22513.1
 17 03 2015  02 01  -14.3878 17996.3 -13524.1 -36.9245 22511.5
 17 03 2015  02 02  -14.3883 17995.5 -13524.1 -36.9258 22510.9
 17 03 2015  02 03  -14.3889 17995.3 -13524.2 -36.9262 22510.8
 17 03 2015  02 04  -14.3895 17995.3 -13524.4 -36.9268 22510.9
 17 03 2015  02 05  -14.3898 17995.2 -13524.5 -36.9271 22510.9
 17 03 2015  02 06  -14.3901 17995.0 -13524.5 -36.9275 22510.7
 17 03 2015  02 07  -14.3903 17994.7 -13524.6 -36.9279 22510.5
 17 03 2015  02 08  -14.3906 17994.6 -13524.6 -36.9281 22510.4
 17 03 2015  02 09  -14.3907 17994.4 -13524.7 -36.9286 22510.4
 17 03 2015  02 10  -14.3909 17994.8 -13524.9 -36.9283 22510.8
 17 03 2015  02 11  -14.3917 17994.8 -13524.9 -36.9284 22510.8
 17 03 2015  02 12  -14.3925 17994.3 -13524.9 -36.9292 22510.3
 17 03 2015  02 13  -14.3929 17994.1 -13524.8 -36.9293 22510.2
 17 03 2015  02 14  -14.3933 17993.9 -13524.8 -36.9295 22510.0
 17 03 2015  02 15  -14.3933 17993.8 -13524.9 -36.9300 22510.0
 17 03 2015  02 16  -14.3929 17994.3 -13525.0 -36.9295 22510.4
 17 03 2015  02 17  -14.3928 17994.7 -13525.1 -36.9291 22510.8
 17 03 2015  02 18  -14.3920 17995.2 -13525.3 -36.9287 22511.4
 17 03 2015  02 19  -14.3911 17995.9 -13525.3 -36.9277 22511.9
 17 03 2015  02 20  -14.3904 17996.4 -13525.5 -36.9273 22512.5
 17 03 2015  02 21  -14.3910 17996.6 -13525.4 -36.9268 22512.5
 17 03 2015  02 22  -14.3916 17997.1 -13525.5 -36.9263 22513.0
 17 03 2015  02 23  -14.3919 17997.5 -13525.4 -36.9254 22513.2
 17 03 2015  02 24  -14.3919 17997.5 -13525.4 -36.9254 22513.2
 17 03 2015  02 25  -14.3913 17997.3 -13525.2 -36.9252 22513.0
 17 03 2015  02 26  -14.3903 17997.4 -13525.2 -36.9250 22513.0
 17 03 2015  02 27  -14.3890 17998.1 -13525.3 -36.9243 22513.7
 17 03 2015  02 28  -14.3874 17998.9 -13525.6 -36.9236 22514.5
 17 03 2015  02 29  -14.3865 17999.3 -13525.6 -36.9230 22514.8
 17 03 2015  02 30  -14.3869 17998.7 -13525.4 -36.9234 22514.2
 17 03 2015  02 31  -14.3872 17997.5 -13525.1 -36.9246 22513.0
 17 03 2015  02 32  -14.3873 17996.5 -13524.9 -36.9260 22512.1
 17 03 2015  02 33  -14.3874 17995.8 -13525.1 -36.9273 22511.7
 17 03 2015  02 34  -14.3876 17995.1 -13525.0 -36.9282 22511.1
 17 03 2015  02 35  -14.3881 17995.0 -13525.2 -36.9288 22511.1
 17 03 2015  02 36  -14.3883 17995.0 -13525.4 -36.9292 22511.3
 17 03 2015  02 37  -14.3890 17994.6 -13525.4 -36.9299 22510.9
 17 03 2015  02 38  -14.3895 17993.8 -13525.3 -36.9308 22510.3
 17 03 2015  02 39  -14.3896 17993.4 -13525.4 -36.9318 22510.0
 17 03 2015  02 40  -14.3898 17992.6 -13525.4 -36.9328 22509.3
 17 03 2015  02 41  -14.3897 17992.8 -13525.6 -36.9331 22509.6
 17 03 2015  02 42  -14.3901 17993.0 -13525.8 -36.9330 22509.9
 17 03 2015  02 43  -14.3906 17993.4 -13526.0 -36.9329 22510.4
 17 03 2015  02 44  -14.3906 17993.8 -13526.0 -36.9322 22510.7
 17 03 2015  02 45  -14.3905 17994.0 -13526.1 -36.9321 22510.9
 17 03 2015  02 46  -14.3901 17994.4 -13526.2 -36.9316 22511.3
 17 03 2015  02 47  -14.3895 17995.0 -13526.3 -36.9311 22511.8
 17 03 2015  02 48  -14.3892 17995.1 -13526.2 -36.9306 22511.8
 17 03 2015  02 49  -14.3896 17995.3 -13526.2 -36.9305 22512.0
 17 03 2015  02 50  -14.3903 17995.3 -13526.2 -36.9304 22511.9
 17 03 2015  02 51  -14.3909 17995.3 -13526.1 -36.9302 22511.9
 17 03 2015  02 52  -14.3916 17995.2 -13526.1 -36.9303 22511.9
 17 03 2015  02 53  -14.3919 17995.0 -13526.1 -36.9305 22511.7
 17 03 2015  02 54  -14.3914 17995.2 -13526.2 -36.9306 22511.9
 17 03 2015  02 55  -14.3914 17995.2 -13526.2 -36.9305 22511.9
 17 03 2015  02 56  -14.3914 17995.2 -13526.1 -36.9302 22511.9
 17 03 2015  02 57  -14.3913 17995.3 -13526.2 -36.9303 22512.0
 17 03 2015  02 58  -14.3912 17995.2 -13526.1 -36.9304 22511.8
 17 03 2015  02 59  -14.3913 17995.2 -13526.2 -36.9304 22511.9
 17 03 2015  03 00  -14.3916 17995.2 -13526.3 -36.9307 22512.0
 17 03 2015  03 01  -14.3917 17995.2 -13526.2 -36.9306 22511.9
 17 03 2015  03 02  -14.3918 17995.2 -13526.3 -36.9307 22511.9
 17 03 2015  03 03  -14.3920 17994.9 -13526.1 -36.9309 22511.6
 17 03 2015  03 04  -14.3921 17994.8 -13526.2 -36.9310 22511.6
 17 03 2015  03 05  -14.3924 17994.8 -13526.2 -36.9312 22511.6
 17 03 2015  03 06  -14.3925 17994.8 -13526.3 -36.9312 22511.6
 17 03 2015  03 07  -14.3930 17994.7 -13526.3 -36.9314 22511.5
 17 03 2015  03 08  -14.3936 17994.4 -13526.3 -36.9319 22511.3
 17 03 2015  03 09  -14.3945 17994.0 -13526.2 -36.9322 22511.0
 17 03 2015  03 10  -14.3948 17994.0 -13526.2 -36.9324 22511.0
 17 03 2015  03 11  -14.3950 17994.4 -13526.3 -36.9319 22511.3
 17 03 2015  03 12  -14.3953 17994.5 -13526.4 -36.9321 22511.5
 17 03 2015  03 13  -14.3955 17994.6 -13526.5 -36.9320 22511.6
 17 03 2015  03 14  -14.3956 17994.7 -13526.5 -36.9318 22511.7
 17 03 2015  03 15  -14.3956 17994.8 -13526.4 -36.9316 22511.7
 17 03 2015  03 16  -14.3957 17994.5 -13526.5 -36.9320 22511.5
 17 03 2015  03 17  -14.3958 17994.4 -13526.5 -36.9323 22511.4
 17 03 2015  03 18  -14.3961 17994.0 -13526.4 -36.9327 22511.0
 17 03 2015  03 19  -14.3963 17993.9 -13526.4 -36.9330 22511.0
 17 03 2015  03 20  -14.3963 17994.0 -13526.5 -36.9329 22511.2
 17 03 2015  03 21  -14.3965 17994.2 -13526.5 -36.9325 22511.3
 17 03 2015  03 22  -14.3967 17994.5 -13526.7 -36.9325 22511.6
 17 03 2015  03 23  -14.3967 17994.7 -13526.7 -36.9321 22511.8
 17 03 2015  03 24  -14.3967 17995.3 -13526.7 -36.9315 22512.3
 17 03 2015  03 25  -14.3966 17995.7 -13526.9 -36.9311 22512.7
 17 03 2015  03 26  -14.3964 17995.8 -13526.8 -36.9307 22512.7
 17 03 2015  03 27  -14.3960 17995.9 -13526.7 -36.9305 22512.7
 17 03 2015  03 28  -14.3959 17995.5 -13526.6 -36.9309 22512.4
 17 03 2015  03 29  -14.3968 17995.2 -13526.5 -36.9311 22512.0
 17 03 2015  03 30  -14.3976 17994.9 -13526.5 -36.9316 22511.9
 17 03 2015  03 31  -14.3982 17994.8 -13526.5 -36.9318 22511.8
 17 03 2015  03 32  -14.3987 17994.7 -13526.5 -36.9318 22511.6
 17 03 2015  03 33  -14.3992 17994.8 -13526.5 -36.9317 22511.8
 17 03 2015  03 34  -14.3990 17995.3 -13526.7 -36.9314 22512.2
 17 03 2015  03 35  -14.3982 17995.8 -13526.7 -36.9306 22512.6
 17 03 2015  03 36  -14.3981 17995.8 -13526.7 -36.9306 22512.7
 17 03 2015  03 37  -14.3986 17995.6 -13526.6 -36.9306 22512.4
 17 03 2015  03 38  -14.3992 17995.3 -13526.6 -36.9311 22512.2
 17 03 2015  03 39  -14.4000 17995.1 -13526.5 -36.9313 22512.0
 17 03 2015  03 40  -14.3998 17995.7 -13526.7 -36.9308 22512.6
 17 03 2015  03 41  -14.3994 17996.1 -13526.8 -36.9302 22513.0
 17 03 2015  03 42  -14.3996 17996.3 -13526.8 -36.9301 22513.1
 17 03 2015  03 43  -14.3995 17996.5 -13526.8 -36.9297 22513.2
 17 03 2015  03 44  -14.3994 17996.7 -13526.8 -36.9294 22513.5
 17 03 2015  03 45  -14.3993 17996.7 -13526.6 -36.9291 22513.3
 17 03 2015  03 46  -14.3988 17997.0 -13526.8 -36.9289 22513.7
 17 03 2015  03 47  -14.3989 17997.0 -13526.7 -36.9287 22513.6
 17 03 2015  03 48  -14.3989 17997.6 -13526.7 -36.9277 22514.1
 17 03 2015  03 49  -14.3988 17997.7 -13526.6 -36.9275 22514.1
 17 03 2015  03 50  -14.3985 17997.6 -13526.6 -36.9275 22514.0
 17 03 2015  03 51  -14.3981 17997.9 -13526.6 -36.9272 22514.3
 17 03 2015  03 52  -14.3980 17998.7 -13526.8 -36.9263 22515.0
 17 03 2015  03 53  -14.3983 17998.9 -13526.7 -36.9260 22515.1
 17 03 2015  03 54  -14.3997 17998.3 -13526.5 -36.9263 22514.5
 17 03 2015  03 55  -14.4009 17997.6 -13526.3 -36.9270 22513.9
 17 03 2015  03 56  -14.4009 17997.4 -13526.2 -36.9271 22513.7
 17 03 2015  03 57  -14.4016 17997.2 -13526.3 -36.9277 22513.5
 17 03 2015  03 58  -14.4016 17996.7 -13526.2 -36.9282 22513.1
 17 03 2015  03 59  -14.4007 17997.5 -13526.4 -36.9275 22513.8
 17 03 2015  04 00  -14.4006 17998.2 -13526.7 -36.9268 22514.6
 17 03 2015  04 01  -14.4004 17998.7 -13526.7 -36.9261 22515.0
 17 03 2015  04 02  -14.4004 17998.4 -13526.5 -36.9261 22514.6
 17 03 2015  04 03  -14.4010 17997.8 -13526.3 -36.9267 22514.0
 17 03 2015  04 04  -14.4019 17997.0 -13526.1 -36.9276 22513.2
 17 03 2015  04 05  -14.4022 17996.6 -13526.1 -36.9281 22512.9
 17 03 2015  04 06  -14.4017 17997.3 -13526.3 -36.9275 22513.7
 17 03 2015  04 07  -14.4017 17997.3 -13526.4 -36.9275 22513.7
 17 03 2015  04 08  -14.4017 17996.8 -13526.2 -36.9281 22513.2
 17 03 2015  04 09  -14.4022 17996.3 -13526.2 -36.9288 22512.8
 17 03 2015  04 10  -14.4030 17996.6 -13526.5 -36.9290 22513.1
 17 03 2015  04 11  -14.4044 17996.3 -13526.3 -36.9291 22512.8
 17 03 2015  04 12  -14.4043 17995.9 -13526.3 -36.9296 22512.5
 17 03 2015  04 13  -14.4043 17996.0 -13526.3 -36.9294 22512.6
 17 03 2015  04 14  -14.4036 17996.7 -13526.5 -36.9287 22513.3
 17 03 2015  04 15  -14.4035 17997.0 -13526.5 -36.9283 22513.5
 17 03 2015  04 16  -14.4036 17997.0 -13526.4 -36.9282 22513.5
 17 03 2015  04 17  -14.4030 17997.4 -13526.7 -36.9281 22513.9
 17 03 2015  04 18  -14.4026 17997.6 -13526.6 -36.9276 22514.1
 17 03 2015  04 19  -14.4026 17997.3 -13526.4 -36.9277 22513.7
 17 03 2015  04 20  -14.4033 17997.2 -13526.4 -36.9279 22513.7
 17 03 2015  04 21  -14.4044 17997.1 -13526.5 -36.9281 22513.6
 17 03 2015  04 22  -14.4043 17997.0 -13526.5 -36.9283 22513.5
 17 03 2015  04 23  -14.4047 17997.1 -13526.6 -36.9283 22513.6
 17 03 2015  04 24  -14.4051 17997.2 -13526.6 -36.9282 22513.7
 17 03 2015  04 25  -14.4064 17997.0 -13526.4 -36.9281 22513.5
 17 03 2015  04 26  -14.4057 17997.2 -13526.6 -36.9283 22513.7
 17 03 2015  04 27  -14.4057 17997.6 -13526.6 -36.9277 22514.1
 17 03 2015  04 28  -14.4059 17997.7 -13526.5 -36.9273 22514.0
 17 03 2015  04 29  -14.4054 17997.8 -13526.7 -36.9276 22514.3
 17 03 2015  04 30  -14.4052 17998.0 -13526.6 -36.9271 22514.4
 17 03 2015  04 31  -14.4060 17998.4 -13526.7 -36.9265 22514.8
 17 03 2015  04 32  -14.4059 17999.1 -13526.8 -36.9258 22515.3
 17 03 2015  04 33  -14.4052 17999.3 -13526.8 -36.9254 22515.5
 17 03 2015  04 34  -14.4064 17999.3 -13526.8 -36.9254 22515.5
 17 03 2015  04 35  -14.4066 17999.8 -13526.7 -36.9244 22515.9
 17 03 2015  04 36  -14.4051 18000.5 -13526.7 -36.9234 22516.4
 17 03 2015  04 37  -14.4044 18001.5 -13526.9 -36.9224 22517.3
 17 03 2015  04 38  -14.4043 18001.3 -13526.6 -36.9219 22517.0
 17 03 2015  04 39  -14.4038 18001.1 -13526.5 -36.9222 22516.8
 17 03 2015  04 40  -14.4042 18000.5 -13526.2 -36.9224 22516.2
 17 03 2015  04 41  -14.4047 18000.2 -13526.2 -36.9229 22515.9
 17 03 2015  04 42  -14.4050 18000.1 -13526.3 -36.9231 22515.9
 17 03 2015  04 43  -14.4053 18000.3 -13526.3 -36.9229 22516.0
 17 03 2015  04 44  -14.4051 18000.9 -13526.4 -36.9221 22516.6
 17 03 2015  04 45  -14.4033 18007.6 -13527.6 -36.9144 22522.6
 17 03 2015  04 46  -14.3786 18039.5 -13534.5 -36.8797 22552.3
 17 03 2015  04 47  -14.3623 18061.1 -13537.1 -36.8520 22571.1
 17 03 2015  04 48  -14.3598 18062.4 -13533.4 -36.8427 22569.9
 17 03 2015  04 49  -14.3649 18051.3 -13527.5 -36.8476 22557.5
 17 03 2015  04 50  -14.3721 18042.6 -13524.1 -36.8537 22548.6
 17 03 2015  04 51  -14.3739 18038.9 -13522.8 -36.8569 22544.8
 17 03 2015  04 52  -14.3747 18038.3 -13523.0 -36.8582 22544.4
 17 03 2015  04 53  -14.3754 18037.7 -13523.3 -36.8596 22544.1
 17 03 2015  04 54  -14.3788 18036.4 -13523.1 -36.8613 22543.0
 17 03 2015  04 55  -14.3829 18034.0 -13522.8 -36.8643 22540.9
 17 03 2015  04 56  -14.3851 18032.5 -13522.6 -36.8663 22539.6
 17 03 2015  04 57  -14.3861 18032.3 -13523.0 -36.8674 22539.7
 17 03 2015  04 58  -14.3881 18032.1 -13523.2 -36.8682 22539.6
 17 03 2015  04 59  -14.3899 18032.1 -13523.4 -36.8685 22539.8
 17 03 2015  05 00  -14.3927 18031.7 -13523.4 -36.8692 22539.4
 17 03 2015  05 01  -14.3937 18032.6 -13523.9 -36.8687 22540.4
 17 03 2015  05 02  -14.3929 18034.2 -13524.1 -36.8667 22541.8
 17 03 2015  05 03  -14.3930 18036.6 -13524.7 -36.8643 22544.1
 17 03 2015  05 04  -14.3932 18038.8 -13524.9 -36.8612 22546.0
 17 03 2015  05 05  -14.3928 18040.1 -13524.7 -36.8588 22546.9
 17 03 2015  05 06  -14.3917 18041.1 -13524.5 -36.8570 22547.5
 17 03 2015  05 07  -14.3917 18042.0 -13524.4 -36.8554 22548.2
 17 03 2015  05 08  -14.3919 18042.1 -13524.1 -36.8546 22548.2
 17 03 2015  05 09  -14.3920 18041.7 -13523.7 -36.8544 22547.5
 17 03 2015  05 10  -14.3921 18041.4 -13523.6 -36.8546 22547.3
 17 03 2015  05 11  -14.3918 18041.7 -13523.5 -36.8540 22547.5
 17 03 2015  05 12  -14.3902 18041.5 -13523.4 -36.8541 22547.2
 17 03 2015  05 13  -14.3892 18041.9 -13523.4 -36.8536 22547.6
 17 03 2015  05 14  -14.3896 18041.1 -13523.2 -36.8543 22546.8
 17 03 2015  05 15  -14.3934 18038.3 -13522.6 -36.8573 22544.2
 17 03 2015  05 16  -14.3941 18036.0 -13522.2 -36.8601 22542.1
 17 03 2015  05 17  -14.3919 18036.8 -13522.9 -36.8603 22543.2
 17 03 2015  05 18  -14.3922 18038.9 -13523.6 -36.8585 22545.3
 17 03 2015  05 19  -14.3937 18040.7 -13524.2 -36.8568 22547.1
 17 03 2015  05 20  -14.3928 18040.5 -13523.9 -36.8565 22546.8
 17 03 2015  05 21  -14.3969 18036.0 -13522.7 -36.8612 22542.4
 17 03 2015  05 22  -14.4005 18031.9 -13521.8 -36.8656 22538.6
 17 03 2015  05 23  -14.4036 18028.9 -13521.9 -36.8703 22536.2
 17 03 2015  05 24  -14.4041 18028.7 -13522.3 -36.8714 22536.4
 17 03 2015  05 25  -14.4014 18030.6 -13523.4 -36.8706 22538.5
 17 03 2015  05 26  -14.4019 18032.5 -13524.2 -36.8695 22540.5
 17 03 2015  05 27  -14.4024 18033.9 -13524.4 -36.8677 22541.7
 17 03 2015  05 28  -14.4019 18034.4 -13524.4 -36.8671 22542.1
 17 03 2015  05 29  -14.4021 18033.3 -13524.0 -36.8677 22541.1
 17 03 2015  05 30  -14.4036 18032.8 -13523.9 -36.8685 22540.6
 17 03 2015  05 31  -14.4045 18032.9 -13523.9 -36.8683 22540.6
 17 03 2015  05 32  -14.4050 18033.3 -13524.2 -36.8681 22541.2
 17 03 2015  05 33  -14.4039 18032.3 -13523.8 -36.8689 22540.1
 17 03 2015  05 34  -14.4037 18032.5 -13524.0 -36.8691 22540.5
 17 03 2015  05 35  -14.4023 18033.1 -13524.2 -36.8685 22541.0
 17 03 2015  05 36  -14.4012 18034.1 -13524.5 -36.8675 22542.0
 17 03 2015  05 37  -14.4009 18034.3 -13524.3 -36.8671 22542.0
 17 03 2015  05 38  -14.4001 18033.3 -13524.2 -36.8682 22541.1
 17 03 2015  05 39  -14.4022 18030.2 -13523.5 -36.8716 22538.3
 17 03 2015  05 40  -14.4039 18029.7 -13523.6 -36.8725 22537.9
 17 03 2015  05 41  -14.4027 18030.8 -13524.0 -36.8717 22539.1
 17 03 2015  05 42  -14.3991 18033.3 -13524.8 -36.8695 22541.5
 17 03 2015  05 43  -14.3947 18036.1 -13525.3 -36.8661 22544.0
 17 03 2015  05 44  -14.3928 18037.3 -13525.4 -36.8646 22545.1
 17 03 2015  05 45  -14.3929 18036.7 -13524.8 -36.8643 22544.3
 17 03 2015  05 46  -14.3932 18036.3 -13524.5 -36.8642 22543.7
 17 03 2015  05 47  -14.3910 18036.4 -13524.3 -36.8638 22543.7
 17 03 2015  05 48  -14.3900 18038.0 -13524.7 -36.8621 22545.3
 17 03 2015  05 49  -14.3890 18040.9 -13525.3 -36.8587 22547.9
 17 03 2015  05 50  -14.3870 18043.3 -13525.6 -36.8558 22550.0
 17 03 2015  05 51  -14.3850 18042.4 -13524.8 -36.8557 22548.8
 17 03 2015  05 52  -14.3868 18036.6 -13523.3 -36.8614 22543.3
 17 03 2015  05 53  -14.3920 18034.0 -13523.0 -36.8647 22541.0
 17 03 2015  05 54  -14.3942 18030.9 -13522.8 -36.8690 22538.4
 17 03 2015  05 55  -14.3957 18029.7 -13523.0 -36.8713 22537.5
 17 03 2015  05 56  -14.3960 18030.1 -13523.6 -36.8720 22538.2
 17 03 2015  05 57  -14.3936 18033.1 -13524.5 -36.8692 22541.2
 17 03 2015  05 58  -14.3900 18034.4 -13524.9 -36.8680 22542.4
 17 03 2015  05 59  -14.3902 18032.4 -13524.4 -36.8700 22540.6
 17 03 2015  06 00  -14.3924 18031.2 -13524.3 -36.8715 22539.5
 17 03 2015  06 01  -14.3941 18030.5 -13524.4 -36.8729 22539.0
 17 03 2015  06 02  -14.3939 18031.1 -13524.7 -36.8727 22539.7
 17 03 2015  06 03  -14.3946 18031.7 -13525.1 -36.8725 22540.5
 17 03 2015  06 04  -14.3944 18032.7 -13525.3 -36.8714 22541.3
 17 03 2015  06 05  -14.3926 18034.6 -13525.8 -36.8696 22543.2
 17 03 2015  06 06  -14.3922 18035.9 -13526.0 -36.8680 22544.3
 17 03 2015  06 07  -14.3918 18036.6 -13525.8 -36.8665 22544.8
 17 03 2015  06 08  -14.3906 18037.4 -13525.8 -36.8654 22545.4
 17 03 2015  06 09  -14.3900 18036.2 -13525.4 -36.8662 22544.2
 17 03 2015  06 10  -14.3914 18032.8 -13524.6 -36.8699 22541.0
 17 03 2015  06 11  -14.3909 18030.3 -13524.3 -36.8730 22538.8
 17 03 2015  06 12  -14.3892 18030.2 -13524.7 -36.8740 22539.0
 17 03 2015  06 13  -14.3851 18029.7 -13525.0 -36.8753 22538.8
 17 03 2015  06 14  -14.3837 18027.7 -13525.0 -36.8784 22537.1
 17 03 2015  06 15  -14.3830 18026.6 -13525.2 -36.8805 22536.4
 17 03 2015  06 16  -14.3833 18028.7 -13526.3 -36.8795 22538.7
 17 03 2015  06 17  -14.3852 18030.3 -13527.2 -36.8788 22540.6
 17 03 2015  06 18  -14.3843 18030.3 -13527.3 -36.8791 22540.6
 17 03 2015  06 19  -14.3846 18028.8 -13527.1 -36.8811 22539.3
 17 03 2015  06 20  -14.3840 18028.5 -13527.4 -36.8821 22539.2
 17 03 2015  06 21  -14.3834 18027.0 -13527.5 -36.8844 22538.1
 17 03 2015  06 22  -14.3846 18024.9 -13527.6 -36.8878 22536.5
 17 03 2015  06 23  -14.3865 18022.1 -13527.5 -36.8920 22534.2
 17 03 2015  06 24  -14.3881 18019.3 -13527.6 -36.8965 22532.0
 17 03 2015  06 25  -14.3885 18017.2 -13528.2 -36.9008 22530.7
 17 03 2015  06 26  -14.3897 18015.7 -13528.7 -36.9041 22529.8
 17 03 2015  06 27  -14.3924 18014.5 -13529.1 -36.9069 22529.0
 17 03 2015  06 28  -14.3940 18013.1 -13529.6 -36.9100 22528.2
 17 03 2015  06 29  -14.3956 18011.0 -13529.8 -36.9136 22526.7
 17 03 2015  06 30  -14.3975 18008.9 -13530.2 -36.9176 22525.2
 17 03 2015  06 31  -14.3993 18007.7 -13530.6 -36.9203 22524.5
 17 03 2015  06 32  -14.4023 18005.1 -13530.8 -36.9246 22522.6
 17 03 2015  06 33  -14.4061 18002.3 -13530.8 -36.9291 22520.3
 17 03 2015  06 34  -14.4104 17999.0 -13530.8 -36.9340 22517.7
 17 03 2015  06 35  -14.4143 17997.1 -13531.2 -36.9378 22516.4
 17 03 2015  06 36  -14.4164 17996.2 -13531.9 -36.9405 22516.1
 17 03 2015  06 37  -14.4199 17994.3 -13532.3 -36.9441 22514.8
 17 03 2015  06 38  -14.4245 17991.7 -13532.1 -36.9479 22512.7
 17 03 2015  06 39  -14.4272 17989.7 -13532.4 -36.9516 22511.3
 17 03 2015  06 40  -14.4300 17987.7 -13532.5 -36.9547 22509.7
 17 03 2015  06 41  -14.4315 17986.2 -13532.9 -36.9579 22508.8
 17 03 2015  06 42  -14.4347 17985.0 -13533.2 -36.9604 22507.9
 17 03 2015  06 43  -14.4377 17984.9 -13533.7 -36.9616 22508.2
 17 03 2015  06 44  -14.4397 17985.1 -13534.4 -36.9626 22508.8
 17 03 2015  06 45  -14.4420 17983.9 -13534.4 -36.9643 22507.8
 17 03 2015  06 46  -14.4445 17982.7 -13534.3 -36.9661 22506.8
 17 03 2015  06 47  -14.4460 17982.2 -13534.5 -36.9672 22506.5
 17 03 2015  06 48  -14.4465 17980.6 -13534.2 -36.9691 22505.0
 17 03 2015  06 49  -14.4454 17981.9 -13534.6 -36.9680 22506.3
 17 03 2015  06 50  -14.4434 17985.0 -13535.6 -36.9652 22509.4
 17 03 2015  06 51  -14.4431 17985.8 -13535.7 -36.9642 22510.1
 17 03 2015  06 52  -14.4457 17983.8 -13534.9 -36.9657 22508.0
 17 03 2015  06 53  -14.4480 17984.4 -13534.9 -36.9647 22508.6
 17 03 2015  06 54  -14.4490 17985.9 -13535.0 -36.9627 22509.8
 17 03 2015  06 55  -14.4480 17988.9 -13535.5 -36.9592 22512.4
 17 03 2015  06 56  -14.4468 17990.6 -13535.5 -36.9564 22513.8
 17 03 2015  06 57  -14.4479 17989.7 -13534.9 -36.9566 22512.7
 17 03 2015  06 58  -14.4510 17989.0 -13534.4 -36.9565 22511.9
 17 03 2015  06 59  -14.4527 17988.7 -13534.0 -36.9564 22511.4
 17 03 2015  07 00  -14.4554 17986.2 -13533.3 -36.9586 22508.9
 17 03 2015  07 01  -14.4568 17987.7 -13533.6 -36.9571 22510.4
 17 03 2015  07 02  -14.4563 17987.8 -13533.6 -36.9568 22510.4
 17 03 2015  07 03  -14.4543 17987.8 -13533.4 -36.9565 22510.3
 17 03 2015  07 04  -14.4536 17988.7 -13533.5 -36.9551 22511.1
 17 03 2015  07 05  -14.4542 17989.4 -13533.3 -36.9539 22511.5
 17 03 2015  07 06  -14.4558 17989.0 -13533.1 -36.9540 22511.1
 17 03 2015  07 07  -14.4565 17988.7 -13532.8 -36.9539 22510.7
 17 03 2015  07 08  -14.4582 17987.8 -13532.5 -36.9545 22509.8
 17 03 2015  07 09  -14.4593 17988.2 -13532.5 -36.9539 22510.1
 17 03 2015  07 10  -14.4584 17990.0 -13532.8 -36.9518 22511.7
 17 03 2015  07 11  -14.4585 17990.7 -13532.9 -36.9509 22512.3
 17 03 2015  07 12  -14.4590 17991.4 -13532.7 -36.9496 22512.7
 17 03 2015  07 13  -14.4604 17991.3 -13532.5 -36.9493 22512.5
 17 03 2015  07 14  -14.4612 17990.9 -13532.3 -36.9494 22512.1
 17 03 2015  07 15  -14.4608 17990.8 -13532.1 -36.9492 22511.9
 17 03 2015  07 16  -14.4608 17991.4 -13532.2 -36.9485 22512.5
 17 03 2015  07 17  -14.4602 17993.4 -13532.5 -36.9462 22514.2
 17 03 2015  07 18  -14.4591 17993.6 -13532.3 -36.9454 22514.3
 17 03 2015  07 19  -14.4580 17992.6 -13532.1 -36.9465 22513.3
 17 03 2015  07 20  -14.4571 17990.8 -13531.6 -36.9483 22511.6
 17 03 2015  07 21  -14.4574 17990.1 -13531.5 -36.9490 22511.0
 17 03 2015  07 22  -14.4580 17989.2 -13531.4 -36.9502 22510.2
 17 03 2015  07 23  -14.4592 17989.0 -13531.4 -36.9506 22510.0
 17 03 2015  07 24  -14.4594 17988.8 -13531.7 -36.9515 22510.1
 17 03 2015  07 25  -14.4602 17989.2 -13532.0 -36.9514 22510.6
 17 03 2015  07 26  -14.4619 17990.5 -13532.4 -36.9502 22511.8
 17 03 2015  07 27  -14.4641 17990.6 -13532.2 -36.9498 22511.8
 17 03 2015  07 28  -14.4662 17990.2 -13532.1 -36.9502 22511.4
 17 03 2015  07 29  -14.4677 17989.3 -13531.8 -36.9508 22510.5
 17 03 2015  07 30  -14.4701 17990.2 -13532.0 -36.9499 22511.3
 17 03 2015  07 31  -14.4716 17991.1 -13532.2 -36.9488 22512.2
 17 03 2015  07 32  -14.4737 17990.9 -13532.0 -36.9488 22511.9
 17 03 2015  07 33  -14.4768 17987.0 -13530.9 -36.9525 22508.2
 17 03 2015  07 34  -14.4787 17982.3 -13530.2 -36.9582 22504.0
 17 03 2015  07 35  -14.4790 17981.2 -13530.4 -36.9604 22503.2
 17 03 2015  07 36  -14.4811 17979.8 -13530.6 -36.9629 22502.2
 17 03 2015  07 37  -14.4843 17982.4 -13531.7 -36.9612 22504.9
 17 03 2015  07 38  -14.4851 17984.1 -13532.2 -36.9596 22506.6
 17 03 2015  07 39  -14.4886 17985.5 -13532.4 -36.9580 22507.8
 17 03 2015  07 40  -14.4903 17988.1 -13532.7 -36.9546 22510.1
 17 03 2015  07 41  -14.4911 17990.1 -13532.8 -36.9516 22511.8
 17 03 2015  07 42  -14.4912 17991.5 -13532.7 -36.9493 22512.8
 17 03 2015  07 43  -14.4906 17993.4 -13532.7 -36.9463 22514.4
 17 03 2015  07 44  -14.4910 17994.1 -13532.3 -36.9445 22514.7
 17 03 2015  07 45  -14.4908 17994.0 -13531.8 -36.9436 22514.3
 17 03 2015  07 46  -14.4909 17992.9 -13531.3 -36.9444 22513.2
 17 03 2015  07 47  -14.4913 17991.6 -13530.8 -36.9454 22511.8
 17 03 2015  07 48  -14.4927 17990.9 -13530.8 -36.9465 22511.2
 17 03 2015  07 49  -14.4938 17990.7 -13530.8 -36.9469 22511.1
 17 03 2015  07 50  -14.4948 17990.4 -13530.8 -36.9473 22510.8
 17 03 2015  07 51  -14.4958 17990.3 -13530.9 -36.9476 22510.8
 17 03 2015  07 52  -14.4959 17989.7 -13530.8 -36.9483 22510.3
 17 03 2015  07 53  -14.4971 17989.2 -13530.8 -36.9490 22509.8
 17 03 2015  07 54  -14.4985 17988.7 -13530.8 -36.9498 22509.4
 17 03 2015  07 55  -14.4981 17988.7 -13531.0 -36.9502 22509.5
 17 03 2015  07 56  -14.4975 17987.4 -13530.8 -36.9518 22508.5
 17 03 2015  07 57  -14.4987 17987.4 -13531.0 -36.9522 22508.5
 17 03 2015  07 58  -14.5008 17987.5 -13531.0 -36.9520 22508.6
 17 03 2015  07 59  -14.4994 17989.2 -13531.5 -36.9505 22510.3
 17 03 2015  08 00  -14.4984 17989.7 -13531.5 -36.9497 22510.7
 17 03 2015  08 01  -14.4982 17990.4 -13531.6 -36.9487 22511.3
 17 03 2015  08 02  -14.4954 17991.3 -13531.5 -36.9473 22512.0
 17 03 2015  08 03  -14.4921 17990.9 -13531.3 -36.9475 22511.6
 17 03 2015  08 04  -14.4920 17990.0 -13531.0 -36.9482 22510.6
 17 03 2015  08 05  -14.4947 17989.2 -13530.9 -36.9493 22509.9
 17 03 2015  08 06  -14.4976 17988.8 -13530.7 -36.9495 22509.5
 17 03 2015  08 07  -14.4980 17990.1 -13531.1 -36.9482 22510.7
 17 03 2015  08 08  -14.4950 17990.4 -13531.1 -36.9477 22511.0
 17 03 2015  08 09  -14.4934 17991.0 -13531.1 -36.9469 22511.5
 17 03 2015  08 10  -14.4926 17989.7 -13530.8 -36.9483 22510.2
 17 03 2015  08 11  -14.4925 17988.6 -13530.5 -36.9494 22509.2
 17 03 2015  08 12  -14.4928 17988.4 -13530.6 -36.9498 22509.2
 17 03 2015  08 13  -14.4896 17988.1 -13530.7 -36.9505 22508.9
 17 03 2015  08 14  -14.4861 17987.2 -13530.6 -36.9516 22508.1
 17 03 2015  08 15  -14.4834 17986.2 -13530.5 -36.9530 22507.3
 17 03 2015  08 16  -14.4805 17986.0 -13530.6 -36.9535 22507.1
 17 03 2015  08 17  -14.4778 17984.8 -13530.4 -36.9550 22506.1
 17 03 2015  08 18  -14.4749 17984.5 -13530.7 -36.9560 22506.0
 17 03 2015  08 19  -14.4738 17984.1 -13530.8 -36.9568 22505.8
 17 03 2015  08 20  -14.4720 17983.7 -13530.9 -36.9576 22505.5
 17 03 2015  08 21  -14.4705 17983.5 -13530.9 -36.9580 22505.4
 17 03 2015  08 22  -14.4712 17983.3 -13531.1 -36.9586 22505.4
 17 03 2015  08 23  -14.4712 17983.4 -13531.2 -36.9587 22505.4
 17 03 2015  08 24  -14.4698 17984.0 -13531.3 -36.9580 22506.1
 17 03 2015  08 25  -14.4681 17984.5 -13531.6 -36.9578 22506.6
 17 03 2015  08 26  -14.4665 17983.5 -13531.2 -36.9587 22505.5
 17 03 2015  08 27  -14.4665 17981.8 -13531.0 -36.9608 22504.1
 17 03 2015  08 28  -14.4650 17981.1 -13531.0 -36.9618 22503.5
 17 03 2015  08 29  -14.4649 17981.4 -13531.3 -36.9620 22503.9
 17 03 2015  08 30  -14.4676 17985.4 -13532.4 -36.9581 22507.7
 17 03 2015  08 31  -14.4687 17989.5 -13533.1 -36.9531 22511.5
 17 03 2015  08 32  -14.4667 17991.7 -13532.9 -36.9495 22513.1
 17 03 2015  08 33  -14.4660 17990.3 -13532.0 -36.9497 22511.4
 17 03 2015  08 34  -14.4695 17989.9 -13531.4 -36.9492 22510.8
 17 03 2015  08 35  -14.4722 17989.5 -13531.1 -36.9491 22510.3
 17 03 2015  08 36  -14.4733 17988.3 -13530.5 -36.9497 22509.0
 17 03 2015  08 37  -14.4723 17987.7 -13530.4 -36.9505 22508.4
 17 03 2015  08 38  -14.4711 17986.7 -13530.1 -36.9515 22507.4
 17 03 2015  08 39  -14.4683 17983.3 -13529.4 -36.9553 22504.3
 17 03 2015  08 40  -14.4673 17979.6 -13528.9 -36.9598 22501.0
 17 03 2015  08 41  -14.4695 17977.5 -13529.0 -36.9634 22499.4
 17 03 2015  08 42  -14.4732 17977.1 -13529.5 -36.9649 22499.4
 17 03 2015  08 43  -14.4749 17977.4 -13530.0 -36.9655 22499.9
 17 03 2015  08 44  -14.4744 17977.1 -13530.2 -36.9664 22499.8
 17 03 2015  08 45  -14.4751 17976.0 -13530.3 -36.9681 22499.0
 17 03 2015  08 46  -14.4766 17976.2 -13530.6 -36.9685 22499.4
 17 03 2015  08 47  -14.4770 17976.3 -13530.9 -36.9690 22499.6
 17 03 2015  08 48  -14.4751 17976.7 -13531.2 -36.9689 22500.1
 17 03 2015  08 49  -14.4725 17976.4 -13531.2 -36.9693 22499.9
 17 03 2015  08 50  -14.4714 17975.0 -13531.0 -36.9711 22498.7
 17 03 2015  08 51  -14.4684 17973.6 -13530.8 -36.9730 22497.4
 17 03 2015  08 52  -14.4675 17973.5 -13531.3 -36.9742 22497.6
 17 03 2015  08 53  -14.4704 17972.3 -13531.4 -36.9761 22496.7
 17 03 2015  08 54  -14.4722 17971.1 -13531.4 -36.9778 22495.8
 17 03 2015  08 55  -14.4727 17969.2 -13531.3 -36.9805 22494.2
 17 03 2015  08 56  -14.4721 17965.7 -13531.0 -36.9856 22491.2
 17 03 2015  08 57  -14.4756 17963.2 -13531.2 -36.9896 22489.4
 17 03 2015  08 58  -14.4800 17962.0 -13531.5 -36.9920 22488.5
 17 03 2015  08 59  -14.4807 17962.1 -13532.1 -36.9933 22489.0
 17 03 2015  09 00  -14.4787 17961.1 -13532.3 -36.9952 22488.3
 17 03 2015  09 01  -14.4779 17959.1 -13532.3 -36.9981 22486.7
 17 03 2015  09 02  -14.4795 17957.3 -13532.5 -37.0012 22485.4
 17 03 2015  09 03  -14.4794 17956.4 -13532.8 -37.0034 22484.8
 17 03 2015  09 04  -14.4736 17955.0 -13533.2 -37.0062 22484.0
 17 03 2015  09 05  -14.4697 17951.6 -13533.1 -37.0114 22481.2
 17 03 2015  09 06  -14.4681 17949.1 -13533.4 -37.0157 22479.4
 17 03 2015  09 07  -14.4665 17946.6 -13533.7 -37.0203 22477.6
 17 03 2015  09 08  -14.4643 17943.3 -13533.9 -37.0258 22475.0
 17 03 2015  09 09  -14.4650 17939.8 -13534.1 -37.0315 22472.4
 17 03 2015  09 10  -14.4672 17939.3 -13534.9 -37.0340 22472.4
 17 03 2015  09 11  -14.4671 17939.0 -13535.7 -37.0359 22472.7
 17 03 2015  09 12  -14.4647 17937.6 -13536.0 -37.0387 22471.8
 17 03 2015  09 13  -14.4637 17936.6 -13536.3 -37.0409 22471.1
 17 03 2015  09 14  -14.4641 17936.1 -13536.8 -37.0426 22471.0
 17 03 2015  09 15  -14.4650 17934.6 -13537.0 -37.0452 22470.0
 17 03 2015  09 16  -14.4661 17934.5 -13537.4 -37.0465 22470.1
 17 03 2015  09 17  -14.4647 17934.3 -13537.6 -37.0470 22470.1
 17 03 2015  09 18  -14.4636 17932.8 -13537.5 -37.0491 22468.8
 17 03 2015  09 19  -14.4632 17932.9 -13537.7 -37.0494 22469.0
 17 03 2015  09 20  -14.4607 17934.2 -13537.8 -37.0477 22470.1
 17 03 2015  09 21  -14.4569 17937.1 -13538.5 -37.0446 22472.8
 17 03 2015  09 22  -14.4521 17939.5 -13538.7 -37.0413 22474.9
 17 03 2015  09 23  -14.4492 17940.0 -13538.3 -37.0398 22475.1
 17 03 2015  09 24  -14.4453 17939.7 -13537.6 -37.0388 22474.5
 17 03 2015  09 25  -14.4407 17940.3 -13537.1 -37.0368 22474.6
 17 03 2015  09 26  -14.4348 17941.7 -13536.8 -37.0342 22475.5
 17 03 2015  09 27  -14.4261 17942.6 -13536.5 -37.0321 22476.1
 17 03 2015  09 28  -14.4213 17943.6 -13535.9 -37.0292 22476.5
 17 03 2015  09 29  -14.4137 17945.3 -13535.4 -37.0258 22477.6
 17 03 2015  09 30  -14.4050 17946.1 -13534.7 -37.0230 22477.8
 17 03 2015  09 31  -14.4008 17946.7 -13534.2 -37.0212 22478.0
 17 03 2015  09 32  -14.3997 17946.7 -13533.7 -37.0201 22477.6
 17 03 2015  09 33  -14.3983 17948.1 -13533.6 -37.0176 22478.7
 17 03 2015  09 34  -14.3960 17949.0 -13533.2 -37.0156 22479.2
 17 03 2015  09 35  -14.3954 17950.7 -13533.1 -37.0126 22480.5
 17 03 2015  09 36  -14.3968 17953.4 -13533.1 -37.0086 22482.6
 17 03 2015  09 37  -14.3962 17953.9 -13532.3 -37.0062 22482.5
 17 03 2015  09 38  -14.4026 17954.7 -13532.0 -37.0043 22483.0
 17 03 2015  09 39  -14.4083 17958.3 -13532.3 -36.9994 22486.1
 17 03 2015  09 40  -14.4080 17962.7 -13532.4 -36.9929 22489.7
 17 03 2015  09 41  -14.4068 17966.4 -13531.9 -36.9862 22492.3
 17 03 2015  09 42  -14.4041 17966.6 -13530.7 -36.9834 22491.7
 17 03 2015  09 43  -14.3936 17965.7 -13529.4 -36.9823 22490.2
 17 03 2015  09 44  -14.3888 17965.2 -13528.9 -36.9817 22489.6
 17 03 2015  09 45  -14.3861 17967.1 -13528.9 -36.9791 22491.0
 17 03 2015  09 46  -14.3789 17968.3 -13528.9 -36.9772 22492.0
 17 03 2015  09 47  -14.3709 17969.2 -13528.7 -36.9754 22492.6
 17 03 2015  09 48  -14.3647 17969.5 -13528.6 -36.9747 22492.8
 17 03 2015  09 49  -14.3583 17969.9 -13528.4 -36.9738 22493.0
 17 03 2015  09 50  -14.3560 17970.1 -13528.3 -36.9732 22493.1
 17 03 2015  09 51  -14.3548 17971.5 -13528.6 -36.9716 22494.4
 17 03 2015  09 52  -14.3524 17972.8 -13528.9 -36.9702 22495.7
 17 03 2015  09 53  -14.3475 17973.1 -13528.9 -36.9699 22495.9
 17 03 2015  09 54  -14.3429 17973.0 -13528.9 -36.9699 22495.8
 17 03 2015  09 55  -14.3383 17973.4 -13529.0 -36.9696 22496.2
 17 03 2015  09 56  -14.3362 17973.8 -13529.4 -36.9697 22496.7
 17 03 2015  09 57  -14.3366 17974.6 -13529.8 -36.9694 22497.6
 17 03 2015  09 58  -14.3372 17974.3 -13530.1 -36.9705 22497.5
 17 03 2015  09 59  -14.3373 17973.9 -13530.4 -36.9715 22497.4
 17 03 2015  10 00  -14.3389 17973.8 -13530.7 -36.9725 22497.5
 17 03 2015  10 01  -14.3417 17973.4 -13531.3 -36.9742 22497.6
 17 03 2015  10 02  -14.3422 17973.9 -13531.8 -36.9745 22498.2
 17 03 2015  10 03  -14.3412 17973.6 -13532.1 -36.9755 22498.2
 17 03 2015  10 04  -14.3378 17973.5 -13532.5 -36.9766 22498.4
 17 03 2015  10 05  -14.3388 17973.6 -13533.1 -36.9775 22498.8
 17 03 2015  10 06  -14.3451 17972.4 -13533.3 -36.9798 22497.9
 17 03 2015  10 07  -14.3484 17971.0 -13533.5 -36.9824 22496.9
 17 03 2015  10 08  -14.3523 17970.6 -13534.1 -36.9841 22497.0
 17 03 2015  10 09  -14.3560 17972.3 -13535.0 -36.9835 22498.9
 17 03 2015  10 10  -14.3559 17972.1 -13535.4 -36.9846 22498.9
 17 03 2015  10 11  -14.3652 17972.2 -13535.9 -36.9855 22499.3
 17 03 2015  10 12  -14.3738 17974.5 -13536.9 -36.9838 22501.8
 17 03 2015  10 13  -14.3771 17975.4 -13537.1 -36.9830 22502.6
 17 03 2015  10 14  -14.3803 17974.8 -13537.0 -36.9837 22502.2
 17 03 2015  10 15  -14.3821 17973.5 -13537.0 -36.9856 22501.0
 17 03 2015  10 16  -14.3839 17973.2 -13537.2 -36.9865 22500.9
 17 03 2015  10 17  -14.3850 17973.1 -13537.3 -36.9870 22500.9
 17 03 2015  10 18  -14.3867 17972.7 -13537.7 -36.9883 22500.9
 17 03 2015  10 19  -14.3910 17971.9 -13537.9 -36.9899 22500.3
 17 03 2015  10 20  -14.3929 17971.2 -13538.1 -36.9915 22499.9
 17 03 2015  10 21  -14.3918 17971.4 -13538.5 -36.9919 22500.2
 17 03 2015  10 22  -14.3858 17969.7 -13538.6 -36.9948 22499.0
 17 03 2015  10 23  -14.3813 17966.9 -13538.4 -36.9986 22496.6
 17 03 2015  10 24  -14.3900 17965.8 -13539.0 -37.0016 22496.1
 17 03 2015  10 25  -14.3968 17966.9 -13539.9 -37.0018 22497.5
 17 03 2015  10 26  -14.3958 17966.5 -13540.1 -37.0026 22497.3
 17 03 2015  10 27  -14.3922 17966.6 -13540.6 -37.0036 22497.7
 17 03 2015  10 28  -14.3936 17965.9 -13540.8 -37.0050 22497.3
 17 03 2015  10 29  -14.3932 17965.9 -13541.4 -37.0062 22497.6
 17 03 2015  10 30  -14.3974 17965.3 -13541.4 -37.0072 22497.1
 17 03 2015  10 31  -14.3994 17967.0 -13542.1 -37.0059 22498.9
 17 03 2015  10 32  -14.4051 17967.6 -13542.3 -37.0054 22499.5
 17 03 2015  10 33  -14.4100 17966.2 -13542.0 -37.0071 22498.3
 17 03 2015  10 34  -14.4120 17964.8 -13541.8 -37.0088 22496.9
 17 03 2015  10 35  -14.4109 17963.6 -13541.9 -37.0107 22496.1
 17 03 2015  10 36  -14.4116 17963.2 -13542.2 -37.0120 22496.0
 17 03 2015  10 37  -14.4115 17963.1 -13542.6 -37.0130 22496.1
 17 03 2015  10 38  -14.4137 17963.2 -13543.0 -37.0137 22496.5
 17 03 2015  10 39  -14.4168 17964.2 -13543.5 -37.0132 22497.5
 17 03 2015  10 40  -14.4134 17964.7 -13543.7 -37.0128 22498.1
 17 03 2015  10 41  -14.4098 17964.0 -13543.7 -37.0140 22497.5
 17 03 2015  10 42  -14.4149 17963.7 -13544.0 -37.0150 22497.4
 17 03 2015  10 43  -14.4186 17963.8 -13544.1 -37.0150 22497.5
 17 03 2015  10 44  -14.4206 17963.9 -13544.2 -37.0151 22497.8
 17 03 2015  10 45  -14.4224 17964.4 -13544.6 -37.0151 22498.3
 17 03 2015  10 46  -14.4239 17964.4 -13544.5 -37.0149 22498.2
 17 03 2015  10 47  -14.4253 17964.3 -13544.5 -37.0150 22498.3
 17 03 2015  10 48  -14.4259 17964.0 -13544.5 -37.0156 22497.9
 17 03 2015  10 49  -14.4252 17964.4 -13544.7 -37.0152 22498.4
 17 03 2015  10 50  -14.4253 17965.3 -13545.1 -37.0147 22499.3
 17 03 2015  10 51  -14.4258 17966.4 -13545.2 -37.0133 22500.3
 17 03 2015  10 52  -14.4280 17965.1 -13544.9 -37.0145 22499.1
 17 03 2015  10 53  -14.4326 17965.3 -13544.8 -37.0142 22499.2
 17 03 2015  10 54  -14.4365 17966.2 -13545.0 -37.0131 22500.0
 17 03 2015  10 55  -14.4433 17966.6 -13544.8 -37.0121 22500.2
 17 03 2015  10 56  -14.4445 17966.8 -13544.6 -37.0115 22500.2
 17 03 2015  10 57  -14.4426 17965.6 -13544.1 -37.0123 22499.0
 17 03 2015  10 58  -14.4398 17965.9 -13544.3 -37.0122 22499.4
 17 03 2015  10 59  -14.4375 17967.1 -13544.8 -37.0113 22500.7
 17 03 2015  11 00  -14.4362 17967.8 -13545.0 -37.0107 22501.3
 17 03 2015  11 01  -14.4377 17967.9 -13545.1 -37.0107 22501.5
 17 03 2015  11 02  -14.4389 17968.7 -13545.2 -37.0098 22502.2
 17 03 2015  11 03  -14.4409 17968.0 -13545.0 -37.0102 22501.5
 17 03 2015  11 04  -14.4414 17966.6 -13544.6 -37.0117 22500.1
 17 03 2015  11 05  -14.4400 17965.4 -13544.4 -37.0132 22499.0
 17 03 2015  11 06  -14.4400 17965.2 -13544.6 -37.0140 22499.0
 17 03 2015  11 07  -14.4427 17967.3 -13545.4 -37.0122 22501.2
 17 03 2015  11 08  -14.4471 17969.1 -13545.7 -37.0101 22502.8
 17 03 2015  11 09  -14.4514 17968.6 -13545.3 -37.0100 22502.1
 17 03 2015  11 10  -14.4563 17968.0 -13544.9 -37.0100 22501.4
 17 03 2015  11 11  -14.4576 17968.5 -13545.0 -37.0096 22501.8
 17 03 2015  11 12  -14.4591 17970.1 -13545.2 -37.0076 22503.3
 17 03 2015  11 13  -14.4611 17970.5 -13545.1 -37.0067 22503.5
 17 03 2015  11 14  -14.4639 17975.3 -13545.8 -37.0009 22507.8
 17 03 2015  11 15  -14.4620 17978.0 -13546.1 -36.9972 22510.1
 17 03 2015  11 16  -14.4614 17976.5 -13544.9 -36.9971 22508.2
 17 03 2015  11 17  -14.4650 17974.9 -13544.0 -36.9979 22506.4
 17 03 2015  11 18  -14.4690 17975.9 -13544.0 -36.9962 22507.2
 17 03 2015  11 19  -14.4677 17979.7 -13544.5 -36.9914 22510.5
 17 03 2015  11 20  -14.4662 17980.4 -13544.1 -36.9895 22510.8
 17 03 2015  11 21  -14.4674 17980.1 -13543.5 -36.9888 22510.2
 17 03 2015  11 22  -14.4686 17980.0 -13542.8 -36.9876 22509.7
 17 03 2015  11 23  -14.4651 17979.5 -13542.3 -36.9872 22509.1
 17 03 2015  11 24  -14.4615 17979.2 -13542.1 -36.9872 22508.7
 17 03 2015  11 25  -14.4622 17977.8 -13541.8 -36.9888 22507.3
 17 03 2015  11 26  -14.4624 17977.7 -13541.9 -36.9892 22507.3
 17 03 2015  11 27  -14.4659 17978.1 -13541.9 -36.9886 22507.7
 17 03 2015  11 28  -14.4649 17977.9 -13541.7 -36.9883 22507.4
 17 03 2015  11 29  -14.4656 17979.5 -13541.9 -36.9863 22508.8
 17 03 2015  11 30  -14.4668 17977.4 -13541.2 -36.9881 22506.7
 17 03 2015  11 31  -14.4630 17979.3 -13541.5 -36.9860 22508.4
 17 03 2015  11 32  -14.4631 17978.6 -13541.0 -36.9861 22507.5
 17 03 2015  11 33  -14.4594 17981.1 -13541.5 -36.9832 22509.8
 17 03 2015  11 34  -14.4609 17981.5 -13541.3 -36.9821 22510.0
 17 03 2015  11 35  -14.4599 17981.3 -13540.8 -36.9814 22509.5
 17 03 2015  11 36  -14.4601 17982.9 -13540.7 -36.9788 22510.8
 17 03 2015  11 37  -14.4608 17981.1 -13540.0 -36.9800 22508.9
 17 03 2015  11 38  -14.4606 17979.4 -13539.6 -36.9819 22507.3
 17 03 2015  11 39  -14.4626 17979.0 -13539.5 -36.9824 22506.9
 17 03 2015  11 40  -14.4663 17979.6 -13539.8 -36.9821 22507.6
 17 03 2015  11 41  -14.4682 17978.4 -13539.5 -36.9832 22506.4
 17 03 2015  11 42  -14.4721 17977.2 -13539.5 -36.9850 22505.5
 17 03 2015  11 43  -14.4795 17975.4 -13539.1 -36.9871 22503.8
 17 03 2015  11 44  -14.4828 17975.4 -13539.3 -36.9875 22503.9
 17 03 2015  11 45  -14.4847 17974.3 -13539.3 -36.9893 22503.1
 17 03 2015  11 46  -14.4836 17976.0 -13539.9 -36.9876 22504.8
 17 03 2015  11 47  -14.4855 17977.9 -13540.5 -36.9861 22506.7
 17 03 2015  11 48  -14.4886 17972.4 -13538.8 -36.9910 22501.3
 17 03 2015  11 49  -14.4901 17974.8 -13540.0 -36.9897 22503.9
 17 03 2015  11 50  -14.4904 17974.7 -13539.9 -36.9898 22503.8
 17 03 2015  11 51  -14.4900 17974.1 -13539.8 -36.9905 22503.2
 17 03 2015  11 52  -14.4912 17975.5 -13540.4 -36.9894 22504.7
 17 03 2015  11 53  -14.4939 17974.9 -13540.2 -36.9900 22504.1
 17 03 2015  11 54  -14.4943 17974.8 -13540.0 -36.9898 22503.9
 17 03 2015  11 55  -14.4917 17976.2 -13540.3 -36.9882 22505.2
 17 03 2015  11 56  -14.4903 17976.7 -13540.4 -36.9875 22505.7
 17 03 2015  11 57  -14.4900 17977.1 -13540.2 -36.9867 22505.8
 17 03 2015  11 58  -14.4892 17975.3 -13539.6 -36.9882 22504.1
 17 03 2015  11 59  -14.4877 17975.9 -13539.7 -36.9875 22504.6
 17 03 2015  12 00  -14.4835 17979.2 -13540.8 -36.9847 22507.8
 17 03 2015  12 01  -14.4827 17981.1 -13540.9 -36.9818 22509.5
 17 03 2015  12 02  -14.4873 17983.1 -13540.7 -36.9785 22511.0
 17 03 2015  12 03  -14.4907 17984.0 -13540.3 -36.9763 22511.4
 17 03 2015  12 04  -14.4919 17984.3 -13539.3 -36.9738 22511.0
 17 03 2015  12 05  -14.4903 17985.3 -13539.1 -36.9719 22511.7
 17 03 2015  12 06  -14.4881 17986.5 -13538.8 -36.9695 22512.5
 17 03 2015  12 07  -14.4890 17982.7 -13537.5 -36.9725 22508.7
 17 03 2015  12 08  -14.4846 17977.4 -13536.0 -36.9776 22503.5
 17 03 2015  12 09  -14.4806 17968.0 -13534.6 -36.9891 22495.2
 17 03 2015  12 10  -14.4793 17965.1 -13535.6 -36.9957 22493.5
 17 03 2015  12 11  -14.4762 17974.3 -13539.3 -36.9891 22503.1
 17 03 2015  12 12  -14.4786 17978.5 -13540.4 -36.9850 22507.1
 17 03 2015  12 13  -14.4884 17965.6 -13536.6 -36.9969 22494.5
 17 03 2015  12 14  -14.4907 17967.5 -13537.6 -36.9960 22496.6
 17 03 2015  12 15  -14.4845 17979.7 -13540.7 -36.9838 22508.3
 17 03 2015  12 16  -14.4782 17985.5 -13540.8 -36.9750 22513.0
 17 03 2015  12 17  -14.4743 17984.6 -13538.8 -36.9725 22511.0
 17 03 2015  12 18  -14.4746 17980.5 -13536.8 -36.9745 22506.6
 17 03 2015  12 19  -14.4782 17976.8 -13535.6 -36.9778 22502.9
 17 03 2015  12 20  -14.4814 17975.0 -13535.5 -36.9803 22501.3
 17 03 2015  12 21  -14.4877 17972.7 -13535.3 -36.9835 22499.4
 17 03 2015  12 22  -14.4904 17972.4 -13535.6 -36.9845 22499.3
 17 03 2015  12 23  -14.4939 17971.5 -13535.7 -36.9861 22498.7
 17 03 2015  12 24  -14.4967 17972.3 -13536.2 -36.9858 22499.5
 17 03 2015  12 25  -14.4945 17974.4 -13536.6 -36.9834 22501.5
 17 03 2015  12 26  -14.4910 17976.3 -13536.7 -36.9808 22503.1
 17 03 2015  12 27  -14.4877 17979.3 -13536.8 -36.9763 22505.6
 17 03 2015  12 28  -14.4823 17982.7 -13536.9 -36.9714 22508.3
 17 03 2015  12 29  -14.4770 17981.4 -13535.6 -36.9707 22506.6
 17 03 2015  12 30  -14.4772 17983.1 -13535.4 -36.9677 22507.8
 17 03 2015  12 31  -14.4741 17982.3 -13534.4 -36.9668 22506.5
 17 03 2015  12 32  -14.4859 17969.1 -13531.0 -36.9803 22493.9
 17 03 2015  12 33  -14.4974 17959.2 -13529.7 -36.9929 22485.2
 17 03 2015  12 34  -14.5097 17958.8 -13531.4 -36.9968 22486.0
 17 03 2015  12 35  -14.5163 17961.3 -13533.4 -36.9969 22489.2
 17 03 2015  12 36  -14.5201 17960.8 -13533.6 -36.9982 22488.8
 17 03 2015  12 37  -14.5197 17957.5 -13533.0 -37.0021 22485.8
 17 03 2015  12 38  -14.5177 17955.4 -13532.9 -37.0050 22484.1
 17 03 2015  12 39  -14.5124 17956.6 -13533.5 -37.0045 22485.5
 17 03 2015  12 40  -14.5038 17959.7 -13534.3 -37.0013 22488.4
 17 03 2015  12 41  -14.4963 17960.4 -13534.1 -36.9999 22488.8
 17 03 2015  12 42  -14.4886 17962.1 -13534.0 -36.9971 22490.1
 17 03 2015  12 43  -14.4840 17961.2 -13533.4 -36.9972 22489.1
 17 03 2015  12 44  -14.4844 17960.6 -13533.0 -36.9974 22488.4
 17 03 2015  12 45  -14.4870 17959.7 -13532.6 -36.9978 22487.4
 17 03 2015  12 46  -14.4898 17958.6 -13532.0 -36.9984 22486.1
 17 03 2015  12 47  -14.4917 17957.5 -13531.4 -36.9988 22484.9
 17 03 2015  12 48  -14.4944 17956.5 -13531.1 -36.9997 22483.9
 17 03 2015  12 49  -14.4937 17957.6 -13531.1 -36.9980 22484.8
 17 03 2015  12 50  -14.4931 17959.4 -13531.3 -36.9957 22486.3
 17 03 2015  12 51  -14.4896 17960.0 -13531.0 -36.9941 22486.7
 17 03 2015  12 52  -14.4865 17958.1 -13530.0 -36.9951 22484.6
 17 03 2015  12 53  -14.4868 17955.2 -13529.3 -36.9982 22481.8
 17 03 2015  12 54  -14.4865 17954.6 -13529.2 -36.9989 22481.3
 17 03 2015  12 55  -14.4831 17956.7 -13529.8 -36.9967 22483.3
 17 03 2015  12 56  -14.4820 17956.1 -13529.7 -36.9975 22482.7
 17 03 2015  12 57  -14.4792 17958.4 -13529.9 -36.9943 22484.7
 17 03 2015  12 58  -14.4812 17955.1 -13528.7 -36.9969 22481.3
 17 03 2015  12 59  -14.4881 17952.0 -13527.8 -37.0000 22478.4
 17 03 2015  13 00  -14.4949 17949.8 -13527.7 -37.0030 22476.5
 17 03 2015  13 01  -14.4988 17948.8 -13527.6 -37.0044 22475.6
 17 03 2015  13 02  -14.4999 17948.7 -13527.7 -37.0048 22475.7
 17 03 2015  13 03  -14.5011 17949.5 -13528.1 -37.0043 22476.6
 17 03 2015  13 04  -14.4991 17951.2 -13528.4 -37.0023 22478.0
 17 03 2015  13 05  -14.4956 17951.8 -13528.1 -37.0008 22478.3
 17 03 2015  13 06  -14.4897 17952.6 -13527.8 -36.9990 22478.8
 17 03 2015  13 07  -14.4864 17955.2 -13528.1 -36.9957 22481.1
 17 03 2015  13 08  -14.4910 17953.2 -13527.0 -36.9963 22478.8
 17 03 2015  13 09  -14.4948 17949.8 -13525.5 -36.9987 22475.2
 17 03 2015  13 10  -14.5024 17950.0 -13525.5 -36.9983 22475.4
 17 03 2015  13 11  -14.5058 17952.0 -13525.7 -36.9956 22477.0
 17 03 2015  13 12  -14.5035 17952.1 -13525.1 -36.9941 22476.8
 17 03 2015  13 13  -14.4966 17955.8 -13525.3 -36.9890 22479.8
 17 03 2015  13 14  -14.4890 17959.8 -13525.5 -36.9832 22483.2
 17 03 2015  13 15  -14.4808 17962.9 -13525.2 -36.9779 22485.5
 17 03 2015  13 16  -14.4755 17962.8 -13523.9 -36.9754 22484.6
 17 03 2015  13 17  -14.4687 17967.7 -13523.9 -36.9680 22488.6
 17 03 2015  13 18  -14.4661 17968.9 -13523.0 -36.9643 22489.0
 17 03 2015  13 19  -14.4686 17966.5 -13521.4 -36.9648 22486.1
 17 03 2015  13 20  -14.4773 17957.0 -13518.7 -36.9736 22476.8
 17 03 2015  13 21  -14.4843 17956.9 -13518.8 -36.9739 22476.8
 17 03 2015  13 22  -14.4912 17956.4 -13518.7 -36.9747 22476.4
 17 03 2015  13 23  -14.4935 17956.0 -13518.5 -36.9749 22475.9
 17 03 2015  13 24  -14.4956 17955.8 -13518.2 -36.9746 22475.6
 17 03 2015  13 25  -14.5011 17949.9 -13516.8 -36.9806 22470.0
 17 03 2015  13 26  -14.5075 17945.9 -13516.4 -36.9860 22466.6
 17 03 2015  13 27  -14.5121 17958.5 -13519.2 -36.9724 22478.3
 17 03 2015  13 28  -14.4997 17986.8 -13524.5 -36.9399 22504.1
 17 03 2015  13 29  -14.4766 17992.1 -13521.9 -36.9265 22506.9
 17 03 2015  13 30  -14.4564 17982.0 -13516.2 -36.9302 22495.3
 17 03 2015  13 31  -14.4572 17977.5 -13513.8 -36.9323 22490.3
 17 03 2015  13 32  -14.4587 17978.0 -13513.4 -36.9307 22490.5
 17 03 2015  13 33  -14.4674 17972.2 -13511.4 -36.9357 22484.6
 17 03 2015  13 34  -14.4763 17958.4 -13508.2 -36.9502 22471.7
 17 03 2015  13 35  -14.4862 17953.5 -13507.9 -36.9571 22467.5
 17 03 2015  13 36  -14.4953 17953.5 -13509.3 -36.9599 22468.4
 17 03 2015  13 37  -14.5174 17945.4 -13507.7 -36.9690 22461.0
 17 03 2015  13 38  -14.5124 17961.5 -13512.2 -36.9536 22476.5
 17 03 2015  13 39  -14.5095 17950.8 -13509.1 -36.9636 22466.2
 17 03 2015  13 40  -14.5233 17933.0 -13505.6 -36.9838 22449.8
 17 03 2015  13 41  -14.5348 17928.7 -13506.3 -36.9919 22446.8
 17 03 2015  13 42  -14.5407 17926.1 -13507.6 -36.9986 22445.5
 17 03 2015  13 43  -14.5445 17924.6 -13508.9 -37.0034 22445.0
 17 03 2015  13 44  -14.5545 17921.7 -13509.4 -37.0088 22443.1
 17 03 2015  13 45  -14.5577 17926.0 -13511.4 -37.0063 22447.7
 17 03 2015  13 46  -14.5614 17920.7 -13510.6 -37.0130 22443.0
 17 03 2015  13 47  -14.5715 17914.5 -13509.8 -37.0208 22437.6
 17 03 2015  13 48  -14.5766 17918.8 -13511.7 -37.0181 22442.1
 17 03 2015  13 49  -14.5737 17930.3 -13514.6 -37.0064 22453.0
 17 03 2015  13 50  -14.5709 17940.7 -13516.3 -36.9938 22462.4
 17 03 2015  13 51  -14.5640 17949.5 -13516.4 -36.9805 22469.5
 17 03 2015  13 52  -14.5469 17966.6 -13517.9 -36.9574 22484.1
 17 03 2015  13 53  -14.5276 17979.9 -13518.6 -36.9383 22495.1
 17 03 2015  13 54  -14.5312 17942.3 -13506.8 -36.9721 22458.0
 17 03 2015  13 55  -14.5613 17904.4 -13499.1 -37.0145 22423.0
 17 03 2015  13 56  -14.5855 17898.7 -13501.8 -37.0289 22420.1
 17 03 2015  13 57  -14.5810 17907.2 -13507.6 -37.0276 22430.5
 17 03 2015  13 58  -14.5729 17911.8 -13510.8 -37.0270 22436.0
 17 03 2015  13 59  -14.5665 17917.3 -13513.0 -37.0231 22441.7
 17 03 2015  14 00  -14.5536 17918.4 -13513.2 -37.0217 22442.7
 17 03 2015  14 01  -14.5327 17919.7 -13513.5 -37.0203 22443.9
 17 03 2015  14 02  -14.5173 17922.2 -13514.2 -37.0179 22446.4
 17 03 2015  14 03  -14.5044 17920.8 -13513.8 -37.0194 22445.0
 17 03 2015  14 04  -14.4990 17913.8 -13512.7 -37.0277 22438.7
 17 03 2015  14 05  -14.5096 17899.2 -13509.9 -37.0447 22425.4
 17 03 2015  14 06  -14.5095 17912.5 -13514.5 -37.0336 22438.8
 17 03 2015  14 07  -14.4919 17931.0 -13519.0 -37.0143 22456.2
 17 03 2015  14 08  -14.4778 17928.8 -13517.0 -37.0135 22453.3
 17 03 2015  14 09  -14.4715 17932.3 -13516.4 -37.0071 22455.7
 17 03 2015  14 10  -14.4675 17934.5 -13516.2 -37.0032 22457.4
 17 03 2015  14 11  -14.4683 17928.0 -13513.8 -37.0082 22450.8
 17 03 2015  14 12  -14.4712 17925.5 -13513.2 -37.0109 22448.4
 17 03 2015  14 13  -14.4678 17924.1 -13512.9 -37.0125 22447.1
 17 03 2015  14 14  -14.4619 17926.1 -13513.8 -37.0112 22449.2
 17 03 2015  14 15  -14.4649 17927.2 -13514.1 -37.0100 22450.3
 17 03 2015  14 16  -14.4578 17932.3 -13514.7 -37.0036 22454.7
 17 03 2015  14 17  -14.4527 17927.6 -13513.4 -37.0079 22450.2
 17 03 2015  14 18  -14.4701 17909.6 -13509.2 -37.0271 22433.3
 17 03 2015  14 19  -14.4896 17898.5 -13508.0 -37.0417 22423.7
 17 03 2015  14 20  -14.4898 17907.1 -13511.7 -37.0362 22432.8
 17 03 2015  14 21  -14.4731 17918.2 -13515.0 -37.0257 22443.6
 17 03 2015  14 22  -14.4520 17928.3 -13516.8 -37.0138 22452.8
 17 03 2015  14 23  -14.4383 17928.6 -13515.7 -37.0112 22452.3
 17 03 2015  14 24  -14.4311 17928.6 -13514.8 -37.0093 22451.8
 17 03 2015  14 25  -14.4264 17929.1 -13514.1 -37.0071 22451.8
 17 03 2015  14 26  -14.4245 17924.5 -13512.7 -37.0114 22447.3
 17 03 2015  14 27  -14.4319 17922.0 -13512.0 -37.0138 22444.9
 17 03 2015  14 28  -14.4330 17927.4 -13513.3 -37.0082 22449.9
 17 03 2015  14 29  -14.4255 17930.3 -13513.4 -37.0039 22452.4
 17 03 2015  14 30  -14.4241 17924.7 -13511.8 -37.0092 22446.9
 17 03 2015  14 31  -14.4314 17921.3 -13511.0 -37.0127 22443.7
 17 03 2015  14 32  -14.4320 17920.4 -13511.0 -37.0142 22443.0
 17 03 2015  14 33  -14.4321 17918.1 -13510.8 -37.0173 22441.1
 17 03 2015  14 34  -14.4305 17917.8 -13511.2 -37.0187 22441.0
 17 03 2015  14 35  -14.4250 17916.1 -13511.1 -37.0211 22439.6
 17 03 2015  14 36  -14.4228 17913.9 -13511.2 -37.0247 22437.9
 17 03 2015  14 37  -14.4167 17921.0 -13513.1 -37.0176 22444.7
 17 03 2015  14 38  -14.4003 17932.6 -13515.4 -37.0045 22455.4
 17 03 2015  14 39  -14.3836 17941.7 -13515.9 -36.9914 22462.9
 17 03 2015  14 40  -14.3466 17972.7 -13521.1 -36.9545 22490.8
 17 03 2015  14 41  -14.3089 17980.2 -13518.7 -36.9382 22495.4
 17 03 2015  14 42  -14.2835 17984.9 -13516.5 -36.9265 22497.8
 17 03 2015  14 43  -14.2822 17977.1 -13512.0 -36.9294 22488.9
 17 03 2015  14 44  -14.2919 17965.6 -13507.8 -36.9384 22477.2
 17 03 2015  14 45  -14.3044 17960.0 -13506.2 -36.9437 22471.7
 17 03 2015  14 46  -14.3265 17947.8 -13503.7 -36.9573 22460.5
 17 03 2015  14 47  -14.3435 17938.4 -13502.2 -36.9686 22452.1
 17 03 2015  14 48  -14.3534 17934.3 -13502.9 -36.9764 22449.2
 17 03 2015  14 49  -14.3647 17928.1 -13502.8 -36.9857 22444.2
 17 03 2015  14 50  -14.3702 17925.6 -13503.5 -36.9909 22442.7
 17 03 2015  14 51  -14.3776 17923.3 -13504.4 -36.9962 22441.3
 17 03 2015  14 52  -14.3928 17919.8 -13504.4 -37.0016 22438.6
 17 03 2015  14 53  -14.4099 17915.0 -13504.3 -37.0089 22434.7
 17 03 2015  14 54  -14.4329 17903.8 -13502.7 -37.0227 22424.8
 17 03 2015  14 55  -14.4579 17892.6 -13501.6 -37.0377 22415.2
 17 03 2015  14 56  -14.4611 17890.0 -13502.8 -37.0442 22413.8
 17 03 2015  14 57  -14.4624 17887.6 -13504.5 -37.0516 22412.9
 17 03 2015  14 58  -14.4614 17887.6 -13506.3 -37.0551 22414.0
 17 03 2015  14 59  -14.4603 17887.0 -13507.5 -37.0585 22414.2
 17 03 2015  15 00  -14.4601 17886.9 -13508.6 -37.0608 22414.8
 17 03 2015  15 01  -14.4582 17888.0 -13509.3 -37.0606 22416.1
 17 03 2015  15 02  -14.4609 17891.8 -13510.8 -37.0578 22420.0
 17 03 2015  15 03  -14.4687 17892.7 -13510.8 -37.0563 22420.8
 17 03 2015  15 04  -14.4914 17882.6 -13508.0 -37.0664 22411.0
 17 03 2015  15 05  -14.4991 17878.5 -13507.5 -37.0716 22407.4
 17 03 2015  15 06  -14.4922 17880.3 -13508.5 -37.0709 22409.5
 17 03 2015  15 07  -14.4703 17891.4 -13511.7 -37.0603 22420.3
 17 03 2015  15 08  -14.4547 17895.2 -13512.7 -37.0564 22423.9
 17 03 2015  15 09  -14.4486 17897.0 -13512.5 -37.0533 22425.2
 17 03 2015  15 10  -14.4361 17902.0 -13512.8 -37.0462 22429.4
 17 03 2015  15 11  -14.4333 17904.6 -13512.7 -37.0420 22431.4
 17 03 2015  15 12  -14.4386 17903.9 -13511.5 -37.0408 22430.1
 17 03 2015  15 13  -14.4456 17903.2 -13510.6 -37.0399 22429.0
 17 03 2015  15 14  -14.4479 17902.5 -13509.9 -37.0394 22428.0
 17 03 2015  15 15  -14.4472 17901.2 -13509.4 -37.0406 22426.7
 17 03 2015  15 16  -14.4431 17901.2 -13509.4 -37.0404 22426.7
 17 03 2015  15 17  -14.4439 17904.9 -13510.5 -37.0370 22430.3
 17 03 2015  15 18  -14.4494 17903.2 -13510.1 -37.0388 22428.7
 17 03 2015  15 19  -14.4356 17904.2 -13510.0 -37.0371 22429.5
 17 03 2015  15 20  -14.4326 17905.6 -13510.4 -37.0356 22430.8
 17 03 2015  15 21  -14.4138 17915.7 -13512.8 -37.0252 22440.3
 17 03 2015  15 22  -14.3978 17919.3 -13513.1 -37.0200 22443.4
 17 03 2015  15 23  -14.4132 17912.5 -13511.0 -37.0263 22436.7
 17 03 2015  15 24  -14.4491 17893.7 -13506.7 -37.0465 22419.1
 17 03 2015  15 25  -14.5082 17864.4 -13500.8 -37.0797 22392.1
 17 03 2015  15 26  -14.5326 17847.6 -13499.6 -37.1031 22378.0
 17 03 2015  15 27  -14.5297 17848.7 -13503.6 -37.1095 22381.3
 17 03 2015  15 28  -14.5146 17855.0 -13508.7 -37.1103 22389.5
 17 03 2015  15 29  -14.4968 17862.2 -13512.5 -37.1070 22397.5
 17 03 2015  15 30  -14.4791 17866.3 -13514.2 -37.1041 22401.8
 17 03 2015  15 31  -14.4661 17870.8 -13515.7 -37.1001 22406.2
 17 03 2015  15 32  -14.4570 17875.4 -13517.0 -37.0958 22410.7
 17 03 2015  15 33  -14.4541 17880.1 -13517.3 -37.0891 22414.6
 17 03 2015  15 34  -14.4419 17884.9 -13517.7 -37.0826 22418.7
 17 03 2015  15 35  -14.4394 17884.9 -13517.1 -37.0813 22418.3
 17 03 2015  15 36  -14.4363 17885.9 -13516.5 -37.0786 22418.7
 17 03 2015  15 37  -14.4264 17888.4 -13516.6 -37.0750 22420.8
 17 03 2015  15 38  -14.4164 17890.2 -13516.8 -37.0725 22422.3
 17 03 2015  15 39  -14.4069 17890.7 -13516.6 -37.0714 22422.6
 17 03 2015  15 40  -14.4134 17888.1 -13515.8 -37.0738 22420.1
 17 03 2015  15 41  -14.4216 17884.8 -13515.1 -37.0775 22417.0
 17 03 2015  15 42  -14.4321 17878.9 -13514.0 -37.0841 22411.7
 17 03 2015  15 43  -14.4358 17877.1 -13514.2 -37.0874 22410.4
 17 03 2015  15 44  -14.4441 17872.4 -13514.1 -37.0945 22406.6
 17 03 2015  15 45  -14.4413 17872.0 -13515.2 -37.0973 22406.9
 17 03 2015  15 46  -14.4423 17875.0 -13516.8 -37.0960 22410.2
 17 03 2015  15 47  -14.4288 17875.2 -13517.1 -37.0963 22410.7
 17 03 2015  15 48  -14.4208 17875.6 -13518.0 -37.0973 22411.5
 17 03 2015  15 49  -14.4224 17875.1 -13518.5 -37.0992 22411.3
 17 03 2015  15 50  -14.4207 17874.6 -13518.6 -37.1002 22411.1
 17 03 2015  15 51  -14.4081 17874.9 -13519.2 -37.1010 22411.6
 17 03 2015  15 52  -14.3961 17875.9 -13519.9 -37.1007 22412.9
 17 03 2015  15 53  -14.4144 17870.7 -13519.2 -37.1074 22408.3
 17 03 2015  15 54  -14.4069 17873.1 -13519.8 -37.1049 22410.5
 17 03 2015  15 55  -14.4273 17867.7 -13519.0 -37.1116 22405.8
 17 03 2015  15 56  -14.4444 17858.9 -13517.2 -37.1215 22397.7
 17 03 2015  15 57  -14.4589 17854.6 -13517.3 -37.1284 22394.3
 17 03 2015  15 58  -14.4630 17852.6 -13518.1 -37.1330 22393.2
 17 03 2015  15 59  -14.4570 17852.8 -13519.3 -37.1353 22394.1
 17 03 2015  16 00  -14.4521 17850.6 -13519.9 -37.1399 22392.7
 17 03 2015  16 01  -14.4493 17848.8 -13520.6 -37.1442 22391.7
 17 03 2015  16 02  -14.4509 17847.7 -13521.6 -37.1478 22391.4
 17 03 2015  16 03  -14.4595 17847.0 -13522.5 -37.1507 22391.4
 17 03 2015  16 04  -14.4708 17844.1 -13522.7 -37.1555 22389.2
 17 03 2015  16 05  -14.4851 17838.8 -13521.9 -37.1623 22384.5
 17 03 2015  16 06  -14.4850 17837.4 -13522.4 -37.1653 22383.7
 17 03 2015  16 07  -14.4749 17837.7 -13523.3 -37.1668 22384.4
 17 03 2015  16 08  -14.4609 17839.7 -13525.1 -37.1674 22387.2
 17 03 2015  16 09  -14.4609 17838.4 -13525.7 -37.1705 22386.5
 17 03 2015  16 10  -14.4573 17837.7 -13526.1 -37.1726 22386.1
 17 03 2015  16 11  -14.4565 17838.3 -13526.8 -37.1730 22387.0
 17 03 2015  16 12  -14.4477 17839.6 -13527.4 -37.1722 22388.5
 17 03 2015  16 13  -14.4443 17842.3 -13528.2 -37.1697 22391.1
 17 03 2015  16 14  -14.4399 17843.1 -13528.4 -37.1690 22391.8
 17 03 2015  16 15  -14.4341 17846.9 -13528.9 -37.1640 22395.1
 17 03 2015  16 16  -14.4297 17847.1 -13528.6 -37.1631 22395.2
 17 03 2015  16 17  -14.4248 17848.4 -13528.8 -37.1615 22396.3
 17 03 2015  16 18  -14.4217 17848.8 -13528.8 -37.1608 22396.6
 17 03 2015  16 19  -14.4278 17847.1 -13528.1 -37.1622 22394.8
 17 03 2015  16 20  -14.4296 17847.0 -13527.8 -37.1615 22394.6
 17 03 2015  16 21  -14.4375 17845.9 -13527.7 -37.1631 22393.6
 17 03 2015  16 22  -14.4346 17844.6 -13527.2 -37.1641 22392.3
 17 03 2015  16 23  -14.4277 17846.3 -13527.8 -37.1627 22394.0
 17 03 2015  16 24  -14.4236 17845.3 -13527.9 -37.1644 22393.3
 17 03 2015  16 25  -14.4222 17843.4 -13527.8 -37.1672 22391.7
 17 03 2015  16 26  -14.4228 17843.3 -13528.1 -37.1680 22391.8
 17 03 2015  16 27  -14.4229 17841.6 -13528.2 -37.1707 22390.5
 17 03 2015  16 28  -14.4270 17837.0 -13527.4 -37.1763 22386.4
 17 03 2015  16 29  -14.4261 17835.4 -13527.6 -37.1791 22385.2
 17 03 2015  16 30  -14.4165 17836.5 -13528.5 -37.1792 22386.6
 17 03 2015  16 31  -14.4034 17840.3 -13530.3 -37.1771 22390.7
 17 03 2015  16 32  -14.3973 17842.9 -13531.3 -37.1750 22393.4
 17 03 2015  16 33  -14.4029 17843.7 -13531.6 -37.1745 22394.3
 17 03 2015  16 34  -14.4056 17846.6 -13532.0 -37.1707 22396.7
 17 03 2015  16 35  -14.3988 17850.1 -13532.5 -37.1663 22399.9
 17 03 2015  16 36  -14.3901 17852.9 -13532.8 -37.1626 22402.3
 17 03 2015  16 37  -14.3711 17857.0 -13533.3 -37.1574 22405.8
 17 03 2015  16 38  -14.3622 17859.5 -13533.8 -37.1544 22408.1
 17 03 2015  16 39  -14.3533 17861.9 -13533.9 -37.1510 22410.2
 17 03 2015  16 40  -14.3357 17867.0 -13534.6 -37.1446 22414.6
 17 03 2015  16 41  -14.3155 17870.4 -13535.0 -37.1402 22417.6
 17 03 2015  16 42  -14.3030 17874.5 -13535.6 -37.1350 22421.2
 17 03 2015  16 43  -14.2858 17879.4 -13536.1 -37.1284 22425.4
 17 03 2015  16 44  -14.2751 17882.6 -13536.3 -37.1239 22428.1
 17 03 2015  16 45  -14.2755 17881.1 -13535.1 -37.1238 22426.1
 17 03 2015  16 46  -14.2955 17872.6 -13532.4 -37.1314 22417.8
 17 03 2015  16 47  -14.3277 17863.8 -13530.4 -37.1409 22409.6
 17 03 2015  16 48  -14.3600 17853.4 -13528.3 -37.1527 22399.9
 17 03 2015  16 49  -14.3812 17845.5 -13527.6 -37.1634 22393.3
 17 03 2015  16 50  -14.3951 17840.1 -13527.8 -37.1723 22389.1
 17 03 2015  16 51  -14.4020 17837.5 -13528.7 -37.1781 22387.6
 17 03 2015  16 52  -14.3956 17839.6 -13530.6 -37.1787 22390.4
 17 03 2015  16 53  -14.3906 17837.9 -13531.4 -37.1830 22389.5
 17 03 2015  16 54  -14.3998 17832.8 -13531.5 -37.1911 22385.4
 17 03 2015  16 55  -14.4082 17829.5 -13531.8 -37.1968 22383.0
 17 03 2015  16 56  -14.4213 17826.2 -13531.9 -37.2022 22380.5
 17 03 2015  16 57  -14.4302 17823.2 -13532.1 -37.2072 22378.2
 17 03 2015  16 58  -14.4464 17817.9 -13531.8 -37.2147 22373.8
 17 03 2015  16 59  -14.4653 17812.5 -13531.3 -37.2221 22369.3
 17 03 2015  17 00  -14.4694 17810.7 -13532.0 -37.2262 22368.2
 17 03 2015  17 01  -14.4703 17809.9 -13533.0 -37.2297 22368.2
 17 03 2015  17 02  -14.4738 17809.3 -13533.9 -37.2324 22368.2
 17 03 2015  17 03  -14.4717 17811.8 -13535.5 -37.2318 22371.2
 17 03 2015  17 04  -14.4727 17811.5 -13536.1 -37.2334 22371.3
 17 03 2015  17 05  -14.4688 17810.4 -13536.2 -37.2352 22370.5
 17 03 2015  17 06  -14.4538 17816.8 -13538.0 -37.2292 22376.7
 17 03 2015  17 07  -14.4408 17822.1 -13539.4 -37.2239 22381.8
 17 03 2015  17 08  -14.4318 17825.6 -13539.8 -37.2191 22384.8
 17 03 2015  17 09  -14.4056 17831.2 -13540.5 -37.2120 22389.7
 17 03 2015  17 10  -14.4066 17828.1 -13539.3 -37.2142 22386.5
 17 03 2015  17 11  -14.4224 17820.1 -13537.3 -37.2226 22378.9
 17 03 2015  17 12  -14.4464 17812.1 -13535.6 -37.2315 22371.5
 17 03 2015  17 13  -14.4613 17808.5 -13535.4 -37.2366 22368.5
 17 03 2015  17 14  -14.4637 17810.2 -13536.5 -37.2363 22370.5
 17 03 2015  17 15  -14.4641 17810.2 -13537.1 -37.2374 22370.9
 17 03 2015  17 16  -14.4618 17812.7 -13537.9 -37.2352 22373.4
 17 03 2015  17 17  -14.4535 17813.8 -13538.3 -37.2343 22374.5
 17 03 2015  17 18  -14.4429 17815.5 -13538.7 -37.2325 22376.1
 17 03 2015  17 19  -14.4318 17819.4 -13539.6 -37.2284 22379.7
 17 03 2015  17 20  -14.4280 17818.5 -13539.0 -37.2285 22378.7
 17 03 2015  17 21  -14.4214 17819.7 -13539.4 -37.2274 22379.8
 17 03 2015  17 22  -14.4173 17818.3 -13539.1 -37.2290 22378.5
 17 03 2015  17 23  -14.4187 17816.0 -13538.8 -37.2320 22376.5
 17 03 2015  17 24  -14.4279 17814.1 -13538.7 -37.2347 22375.0
 17 03 2015  17 25  -14.4288 17814.1 -13538.8 -37.2350 22375.0
 17 03 2015  17 26  -14.4371 17812.5 -13538.9 -37.2375 22373.8
 17 03 2015  17 27  -14.4616 17800.3 -13536.5 -37.2517 22362.6
 17 03 2015  17 28  -14.4745 17794.7 -13535.7 -37.2588 22357.7
 17 03 2015  17 29  -14.4710 17795.9 -13537.3 -37.2600 22359.6
 17 03 2015  17 30  -14.4641 17800.1 -13539.4 -37.2577 22364.2
 17 03 2015  17 31  -14.4577 17802.7 -13540.6 -37.2562 22367.0
 17 03 2015  17 32  -14.4468 17807.7 -13541.6 -37.2505 22371.7
 17 03 2015  17 33  -14.4230 17820.5 -13544.7 -37.2371 22383.7
 17 03 2015  17 34  -14.4080 17822.0 -13544.0 -37.2332 22384.4
 17 03 2015  17 35  -14.3921 17830.5 -13544.8 -37.2218 22391.7
 17 03 2015  17 36  -14.3740 17839.1 -13545.9 -37.2105 22399.2
 17 03 2015  17 37  -14.3595 17840.6 -13544.6 -37.2056 22399.6
 17 03 2015  17 38  -14.3372 17848.5 -13545.1 -37.1945 22406.2
 17 03 2015  17 39  -14.3111 17855.5 -13545.5 -37.1845 22412.0
 17 03 2015  17 40  -14.3049 17856.6 -13544.1 -37.1801 22412.1
 17 03 2015  17 41  -14.3184 17854.3 -13542.5 -37.1803 22409.2
 17 03 2015  17 42  -14.3186 17854.5 -13541.7 -37.1783 22409.0
 17 03 2015  17 43  -14.3099 17857.3 -13541.6 -37.1737 22411.1
 17 03 2015  17 44  -14.3015 17862.5 -13542.4 -37.1674 22415.8
 17 03 2015  17 45  -14.3005 17858.1 -13540.7 -37.1706 22411.2
 17 03 2015  17 46  -14.2936 17859.3 -13540.6 -37.1686 22412.0
 17 03 2015  17 47  -14.2890 17858.3 -13540.4 -37.1699 22411.2
 17 03 2015  17 48  -14.2815 17856.1 -13539.9 -37.1722 22409.1
 17 03 2015  17 49  -14.2845 17858.4 -13540.9 -37.1707 22411.6
 17 03 2015  17 50  -14.2891 17856.8 -13540.6 -37.1724 22410.1
 17 03 2015  17 51  -14.2842 17856.8 -13540.2 -37.1717 22409.9
 17 03 2015  17 52  -14.2842 17855.0 -13539.6 -37.1733 22408.1
 17 03 2015  17 53  -14.2887 17850.1 -13538.7 -37.1790 22403.6
 17 03 2015  17 54  -14.2902 17842.6 -13537.2 -37.1875 22396.8
 17 03 2015  17 55  -14.2938 17835.6 -13536.6 -37.1971 22390.8
 17 03 2015  17 56  -14.2967 17830.4 -13536.9 -37.2056 22386.8
 17 03 2015  17 57  -14.2931 17830.7 -13538.2 -37.2080 22387.8
 17 03 2015  17 58  -14.2920 17829.6 -13539.1 -37.2114 22387.5
 17 03 2015  17 59  -14.2983 17824.1 -13538.5 -37.2188 22382.8
 17 03 2015  18 00  -14.2984 17819.9 -13538.2 -37.2246 22379.3
 17 03 2015  18 01  -14.3080 17814.9 -13538.1 -37.2323 22375.3
 17 03 2015  18 02  -14.3183 17812.9 -13538.6 -37.2362 22373.9
 17 03 2015  18 03  -14.3212 17812.7 -13539.1 -37.2376 22374.0
 17 03 2015  18 04  -14.3201 17814.5 -13539.9 -37.2366 22376.0
 17 03 2015  18 05  -14.3266 17813.4 -13539.8 -37.2381 22375.1
 17 03 2015  18 06  -14.3371 17809.0 -13538.7 -37.2426 22370.9
 17 03 2015  18 07  -14.3483 17803.8 -13537.6 -37.2485 22366.1
 17 03 2015  18 08  -14.3487 17802.1 -13537.7 -37.2513 22364.8
 17 03 2015  18 09  -14.3548 17798.3 -13537.5 -37.2567 22361.7
 17 03 2015  18 10  -14.3725 17792.6 -13537.2 -37.2651 22356.9
 17 03 2015  18 11  -14.3866 17789.9 -13537.3 -37.2695 22354.8
 17 03 2015  18 12  -14.3977 17786.7 -13537.2 -37.2741 22352.2
 17 03 2015  18 13  -14.4160 17782.9 -13536.9 -37.2794 22349.0
 17 03 2015  18 14  -14.4261 17783.2 -13537.5 -37.2801 22349.6
 17 03 2015  18 15  -14.4392 17782.2 -13537.6 -37.2819 22348.9
 17 03 2015  18 16  -14.4528 17781.3 -13537.7 -37.2835 22348.3
 17 03 2015  18 17  -14.4620 17780.6 -13537.4 -37.2841 22347.5
 17 03 2015  18 18  -14.4721 17778.5 -13536.8 -37.2860 22345.4
 17 03 2015  18 19  -14.4726 17780.5 -13537.4 -37.2843 22347.4
 17 03 2015  18 20  -14.4759 17780.3 -13537.2 -37.2842 22347.1
 17 03 2015  18 21  -14.4746 17780.9 -13537.4 -37.2836 22347.7
 17 03 2015  18 22  -14.4757 17780.9 -13537.3 -37.2834 22347.7
 17 03 2015  18 23  -14.4755 17781.6 -13537.5 -37.2826 22348.3
 17 03 2015  18 24  -14.4779 17781.6 -13537.1 -37.2820 22348.1
 17 03 2015  18 25  -14.4861 17780.7 -13536.7 -37.2825 22347.1
 17 03 2015  18 26  -14.4975 17780.1 -13536.3 -37.2826 22346.4
 17 03 2015  18 27  -14.5005 17781.0 -13536.0 -37.2805 22347.0
 17 03 2015  18 28  -14.4996 17783.2 -13536.3 -37.2779 22348.9
 17 03 2015  18 29  -14.5023 17784.5 -13536.3 -37.2758 22349.9
 17 03 2015  18 30  -14.5079 17786.5 -13536.0 -37.2720 22351.4
 17 03 2015  18 31  -14.5116 17788.8 -13536.0 -37.2685 22353.2
 17 03 2015  18 32  -14.5161 17789.4 -13535.2 -37.2658 22353.2
 17 03 2015  18 33  -14.5205 17790.8 -13534.5 -37.2624 22353.8
 17 03 2015  18 34  -14.5140 17792.9 -13534.1 -37.2581 22355.3
 17 03 2015  18 35  -14.5123 17794.8 -13533.8 -37.2546 22356.6
 17 03 2015  18 36  -14.5042 17796.8 -13533.4 -37.2507 22357.9
 17 03 2015  18 37  -14.5057 17796.7 -13532.9 -37.2499 22357.6
 17 03 2015  18 38  -14.5041 17798.2 -13532.5 -37.2468 22358.6
 17 03 2015  18 39  -14.4974 17800.9 -13532.4 -37.2424 22360.6
 17 03 2015  18 40  -14.4863 17804.0 -13532.6 -37.2379 22363.2
 17 03 2015  18 41  -14.4817 17805.3 -13532.3 -37.2352 22364.1
 17 03 2015  18 42  -14.4755 17807.1 -13531.8 -37.2316 22365.2
 17 03 2015  18 43  -14.4718 17809.4 -13531.6 -37.2276 22366.9
 17 03 2015  18 44  -14.4639 17812.4 -13531.4 -37.2225 22369.1
 17 03 2015  18 45  -14.4625 17812.0 -13530.4 -37.2210 22368.3
 17 03 2015  18 46  -14.4626 17808.3 -13529.0 -37.2240 22364.5
 17 03 2015  18 47  -14.4662 17806.7 -13528.2 -37.2248 22362.7
 17 03 2015  18 48  -14.4596 17808.6 -13528.8 -37.2232 22364.6
 17 03 2015  18 49  -14.4576 17810.4 -13529.2 -37.2212 22366.3
 17 03 2015  18 50  -14.4550 17812.1 -13529.2 -37.2184 22367.6
 17 03 2015  18 51  -14.4457 17815.6 -13529.5 -37.2137 22370.6
 17 03 2015  18 52  -14.4452 17813.0 -13528.6 -37.2157 22368.0
 17 03 2015  18 53  -14.4532 17807.3 -13527.0 -37.2213 22362.5
 17 03 2015  18 54  -14.4623 17804.3 -13526.3 -37.2245 22359.7
 17 03 2015  18 55  -14.4632 17805.8 -13526.9 -37.2235 22361.3
 17 03 2015  18 56  -14.4586 17808.0 -13527.4 -37.2212 22363.2
 17 03 2015  18 57  -14.4590 17806.9 -13527.0 -37.2220 22362.1
 17 03 2015  18 58  -14.4597 17809.0 -13527.2 -37.2192 22363.9
 17 03 2015  18 59  -14.4573 17810.2 -13527.0 -37.2169 22364.8
 17 03 2015  19 00  -14.4523 17812.0 -13526.9 -37.2140 22366.1
 17 03 2015  19 01  -14.4496 17809.2 -13526.1 -37.2166 22363.5
 17 03 2015  19 02  -14.4521 17807.3 -13525.8 -37.2190 22361.8
 17 03 2015  19 03  -14.4436 17807.9 -13526.1 -37.2188 22362.4
 17 03 2015  19 04  -14.4372 17810.1 -13526.9 -37.2168 22364.7
 17 03 2015  19 05  -14.4421 17811.0 -13527.2 -37.2160 22365.5
 17 03 2015  19 06  -14.4411 17813.9 -13527.3 -37.2119 22367.9
 17 03 2015  19 07  -14.4195 17820.2 -13528.3 -37.2041 22373.5
 17 03 2015  19 08  -14.4097 17819.7 -13528.0 -37.2041 22372.9
 17 03 2015  19 09  -14.4133 17818.4 -13527.3 -37.2047 22371.5
 17 03 2015  19 10  -14.4140 17816.1 -13526.3 -37.2064 22369.1
 17 03 2015  19 11  -14.4167 17816.2 -13526.5 -37.2067 22369.2
 17 03 2015  19 12  -14.4204 17813.5 -13525.8 -37.2092 22366.7
 17 03 2015  19 13  -14.4250 17809.5 -13525.1 -37.2142 22363.1
 17 03 2015  19 14  -14.4332 17805.0 -13524.5 -37.2199 22359.1
 17 03 2015  19 15  -14.4336 17803.9 -13524.8 -37.2222 22358.5
 17 03 2015  19 16  -14.4288 17802.5 -13525.1 -37.2250 22357.5
 17 03 2015  19 17  -14.4226 17801.3 -13525.5 -37.2277 22356.8
 17 03 2015  19 18  -14.4211 17799.2 -13525.5 -37.2309 22355.2
 17 03 2015  19 19  -14.4205 17797.3 -13525.8 -37.2345 22353.8
 17 03 2015  19 20  -14.4177 17795.5 -13526.1 -37.2378 22352.5
 17 03 2015  19 21  -14.4217 17793.0 -13525.9 -37.2413 22350.4
 17 03 2015  19 22  -14.4245 17792.0 -13526.1 -37.2432 22349.7
 17 03 2015  19 23  -14.4272 17791.0 -13526.3 -37.2452 22349.1
 17 03 2015  19 24  -14.4303 17790.2 -13526.4 -37.2467 22348.5
 17 03 2015  19 25  -14.4282 17791.6 -13527.0 -37.2458 22349.9
 17 03 2015  19 26  -14.4238 17794.2 -13527.9 -37.2436 22352.6
 17 03 2015  19 27  -14.4290 17794.5 -13528.1 -37.2434 22352.9
 17 03 2015  19 28  -14.4394 17790.4 -13527.1 -37.2478 22349.1
 17 03 2015  19 29  -14.4422 17788.7 -13526.5 -37.2491 22347.4
 17 03 2015  19 30  -14.4433 17788.5 -13526.6 -37.2498 22347.3
 17 03 2015  19 31  -14.4445 17789.5 -13527.0 -37.2490 22348.3
 17 03 2015  19 32  -14.4442 17790.4 -13527.5 -37.2485 22349.3
 17 03 2015  19 33  -14.4433 17790.9 -13527.6 -37.2482 22349.8
 17 03 2015  19 34  -14.4417 17791.4 -13527.8 -37.2477 22350.3
 17 03 2015  19 35  -14.4424 17790.7 -13528.1 -37.2494 22349.9
 17 03 2015  19 36  -14.4516 17785.3 -13527.1 -37.2559 22345.0
 17 03 2015  19 37  -14.4522 17783.7 -13527.0 -37.2580 22343.6
 17 03 2015  19 38  -14.4497 17785.0 -13527.6 -37.2571 22345.1
 17 03 2015  19 39  -14.4484 17785.3 -13528.1 -37.2577 22345.6
 17 03 2015  19 40  -14.4513 17783.9 -13528.1 -37.2598 22344.5
 17 03 2015  19 41  -14.4425 17785.5 -13528.9 -37.2590 22346.2
 17 03 2015  19 42  -14.4386 17787.2 -13529.9 -37.2585 22348.2
 17 03 2015  19 43  -14.4413 17786.3 -13529.8 -37.2597 22347.5
 17 03 2015  19 44  -14.4412 17787.9 -13530.4 -37.2583 22349.1
 17 03 2015  19 45  -14.4474 17787.7 -13530.4 -37.2587 22348.9
 17 03 2015  19 46  -14.4559 17785.7 -13529.7 -37.2604 22346.9
 17 03 2015  19 47  -14.4623 17783.3 -13529.5 -37.2636 22344.9
 17 03 2015  19 48  -14.4527 17786.0 -13530.3 -37.2612 22347.5
 17 03 2015  19 49  -14.4455 17791.1 -13532.1 -37.2569 22352.6
 17 03 2015  19 50  -14.4515 17790.1 -13532.1 -37.2584 22351.8
 17 03 2015  19 51  -14.4558 17787.1 -13531.0 -37.2609 22348.8
 17 03 2015  19 52  -14.4524 17788.5 -13531.5 -37.2597 22350.2
 17 03 2015  19 53  -14.4504 17788.2 -13531.8 -37.2608 22350.1
 17 03 2015  19 54  -14.4490 17788.0 -13531.9 -37.2614 22350.1
 17 03 2015  19 55  -14.4497 17787.0 -13532.0 -37.2632 22349.3
 17 03 2015  19 56  -14.4464 17786.6 -13532.2 -37.2642 22349.2
 17 03 2015  19 57  -14.4426 17786.6 -13532.6 -37.2651 22349.4
 17 03 2015  19 58  -14.4417 17785.3 -13532.7 -37.2672 22348.4
 17 03 2015  19 59  -14.4411 17784.6 -13533.0 -37.2690 22348.0
 17 03 2015  20 00  -14.4379 17784.2 -13533.6 -37.2707 22348.1
 17 03 2015  20 01  -14.4381 17781.8 -13533.4 -37.2741 22346.1
 17 03 2015  20 02  -14.4387 17779.2 -13533.4 -37.2780 22344.0
 17 03 2015  20 03  -14.4316 17779.8 -13534.1 -37.2786 22344.9
 17 03 2015  20 04  -14.4259 17780.4 -13535.0 -37.2794 22345.9
 17 03 2015  20 05  -14.4286 17778.3 -13535.1 -37.2830 22344.3
 17 03 2015  20 06  -14.4335 17775.8 -13535.0 -37.2865 22342.3
 17 03 2015  20 07  -14.4299 17775.1 -13535.3 -37.2883 22341.9
 17 03 2015  20 08  -14.4187 17778.1 -13536.7 -37.2863 22345.1
 17 03 2015  20 09  -14.4140 17778.9 -13537.5 -37.2869 22346.2
 17 03 2015  20 10  -14.4127 17778.5 -13537.6 -37.2877 22346.0
 17 03 2015  20 11  -14.4109 17778.6 -13537.9 -37.2881 22346.2
 17 03 2015  20 12  -14.4168 17774.7 -13537.2 -37.2928 22342.7
 17 03 2015  20 13  -14.4250 17769.9 -13536.5 -37.2988 22338.4
 17 03 2015  20 14  -14.4314 17765.9 -13536.2 -37.3045 22335.1
 17 03 2015  20 15  -14.4317 17765.3 -13536.9 -37.3067 22335.0
 17 03 2015  20 16  -14.4279 17765.4 -13538.0 -37.3089 22335.8
 17 03 2015  20 17  -14.4268 17764.3 -13538.5 -37.3116 22335.2
 17 03 2015  20 18  -14.4273 17762.9 -13538.9 -37.3146 22334.3
 17 03 2015  20 19  -14.4297 17762.4 -13539.5 -37.3165 22334.3
 17 03 2015  20 20  -14.4332 17760.5 -13539.6 -37.3196 22332.9
 17 03 2015  20 21  -14.4334 17759.9 -13539.9 -37.3213 22332.6
 17 03 2015  20 22  -14.4336 17759.5 -13540.4 -37.3230 22332.6
 17 03 2015  20 23  -14.4278 17760.7 -13541.4 -37.3232 22334.1
 17 03 2015  20 24  -14.4264 17761.2 -13541.9 -37.3234 22334.8
 17 03 2015  20 25  -14.4270 17760.0 -13542.0 -37.3254 22333.9
 17 03 2015  20 26  -14.4260 17759.2 -13542.2 -37.3270 22333.4
 17 03 2015  20 27  -14.4248 17758.4 -13542.5 -37.3291 22332.9
 17 03 2015  20 28  -14.4262 17756.2 -13542.6 -37.3326 22331.2
 17 03 2015  20 29  -14.4310 17755.1 -13542.9 -37.3348 22330.6
 17 03 2015  20 30  -14.4368 17755.5 -13543.5 -37.3356 22331.2
 17 03 2015  20 31  -14.4376 17755.3 -13543.7 -37.3364 22331.2
 17 03 2015  20 32  -14.4406 17754.9 -13544.0 -37.3374 22331.1
 17 03 2015  20 33  -14.4464 17754.5 -13544.2 -37.3385 22330.8
 17 03 2015  20 34  -14.4509 17754.8 -13544.4 -37.3383 22331.2
 17 03 2015  20 35  -14.4552 17755.2 -13544.6 -37.3382 22331.7
 17 03 2015  20 36  -14.4587 17757.1 -13545.1 -37.3363 22333.4
 17 03 2015  20 37  -14.4588 17759.9 -13545.6 -37.3330 22336.0
 17 03 2015  20 38  -14.4623 17761.9 -13545.8 -37.3304 22337.7
 17 03 2015  20 39  -14.4631 17763.7 -13545.8 -37.3276 22339.2
 17 03 2015  20 40  -14.4615 17764.4 -13545.7 -37.3261 22339.6
 17 03 2015  20 41  -14.4615 17764.6 -13545.4 -37.3252 22339.6
 17 03 2015  20 42  -14.4559 17766.3 -13545.7 -37.3231 22341.1
 17 03 2015  20 43  -14.4492 17769.0 -13546.2 -37.3200 22343.6
 17 03 2015  20 44  -14.4446 17770.4 -13546.3 -37.3181 22344.8
 17 03 2015  20 45  -14.4427 17770.9 -13546.4 -37.3175 22345.2
 17 03 2015  20 46  -14.4412 17772.3 -13546.5 -37.3155 22346.4
 17 03 2015  20 47  -14.4407 17774.6 -13547.0 -37.3129 22348.5
 17 03 2015  20 48  -14.4421 17774.6 -13546.8 -37.3125 22348.4
 17 03 2015  20 49  -14.4448 17774.1 -13546.5 -37.3126 22347.9
 17 03 2015  20 50  -14.4435 17774.2 -13546.4 -37.3124 22347.9
 17 03 2015  20 51  -14.4493 17770.9 -13545.7 -37.3161 22344.8
 17 03 2015  20 52  -14.4460 17769.8 -13545.6 -37.3174 22343.9
 17 03 2015  20 53  -14.4418 17769.0 -13546.0 -37.3196 22343.5
 17 03 2015  20 54  -14.4430 17766.4 -13546.1 -37.3239 22341.5
 17 03 2015  20 55  -14.4465 17762.3 -13545.8 -37.3297 22338.1
 17 03 2015  20 56  -14.4520 17760.6 -13546.3 -37.3332 22337.0
 17 03 2015  20 57  -14.4586 17760.1 -13546.9 -37.3354 22336.9
 17 03 2015  20 58  -14.4661 17758.7 -13547.0 -37.3377 22335.9
 17 03 2015  20 59  -14.4793 17756.0 -13546.6 -37.3411 22333.5
 17 03 2015  21 00  -14.4888 17757.0 -13547.0 -37.3403 22334.5
 17 03 2015  21 01  -14.4905 17758.6 -13547.4 -37.3385 22336.1
 17 03 2015  21 02  -14.4926 17759.4 -13547.4 -37.3373 22336.7
 17 03 2015  21 03  -14.4893 17760.8 -13547.6 -37.3357 22338.0
 17 03 2015  21 04  -14.4857 17760.7 -13547.9 -37.3364 22338.0
 17 03 2015  21 05  -14.4791 17760.4 -13548.1 -37.3373 22337.9
 17 03 2015  21 06  -14.4736 17758.6 -13548.0 -37.3400 22336.4
 17 03 2015  21 07  -14.4735 17755.4 -13547.7 -37.3443 22333.7
 17 03 2015  21 08  -14.4747 17752.8 -13547.9 -37.3487 22331.7
 17 03 2015  21 09  -14.4808 17748.7 -13547.6 -37.3544 22328.3
 17 03 2015  21 10  -14.4828 17748.0 -13548.1 -37.3567 22328.1
 17 03 2015  21 11  -14.4837 17747.7 -13548.7 -37.3582 22328.2
 17 03 2015  21 12  -14.4841 17748.4 -13549.6 -37.3590 22329.3
 17 03 2015  21 13  -14.4892 17747.1 -13549.4 -37.3606 22328.1
 17 03 2015  21 14  -14.4956 17746.3 -13549.4 -37.3617 22327.5
 17 03 2015  21 15  -14.5023 17746.7 -13549.6 -37.3615 22327.9
 17 03 2015  21 16  -14.5100 17746.4 -13549.3 -37.3615 22327.5
 17 03 2015  21 17  -14.5146 17745.7 -13548.8 -37.3617 22326.7
 17 03 2015  21 18  -14.5126 17746.4 -13548.9 -37.3606 22327.2
 17 03 2015  21 19  -14.5104 17748.9 -13549.6 -37.3582 22329.7
 17 03 2015  21 20  -14.5120 17748.5 -13549.3 -37.3581 22329.2
 17 03 2015  21 21  -14.5109 17747.6 -13549.0 -37.3591 22328.3
 17 03 2015  21 22  -14.5121 17745.1 -13548.4 -37.3617 22325.9
 17 03 2015  21 23  -14.5140 17742.2 -13547.9 -37.3652 22323.3
 17 03 2015  21 24  -14.5142 17740.0 -13547.9 -37.3686 22321.5
 17 03 2015  21 25  -14.5126 17739.4 -13548.2 -37.3701 22321.3
 17 03 2015  21 26  -14.5082 17739.7 -13548.9 -37.3711 22321.9
 17 03 2015  21 27  -14.5006 17740.6 -13549.3 -37.3704 22322.9
 17 03 2015  21 28  -14.4934 17740.6 -13549.7 -37.3713 22323.2
 17 03 2015  21 29  -14.4897 17740.2 -13549.8 -37.3722 22322.9
 17 03 2015  21 30  -14.4886 17738.0 -13549.6 -37.3753 22321.0
 17 03 2015  21 31  -14.4884 17735.3 -13549.4 -37.3790 22318.8
 17 03 2015  21 32  -14.4871 17733.3 -13549.7 -37.3826 22317.4
 17 03 2015  21 33  -14.4908 17730.5 -13549.8 -37.3873 22315.2
 17 03 2015  21 34  -14.4999 17727.5 -13550.0 -37.3923 22313.0
 17 03 2015  21 35  -14.5114 17724.9 -13550.1 -37.3967 22310.9
 17 03 2015  21 36  -14.5194 17723.7 -13550.3 -37.3990 22310.1
 17 03 2015  21 37  -14.5213 17724.5 -13551.1 -37.3993 22311.2
 17 03 2015  21 38  -14.5228 17724.0 -13551.6 -37.4011 22311.2
 17 03 2015  21 39  -14.5228 17724.3 -13552.0 -37.4014 22311.6
 17 03 2015  21 40  -14.5221 17724.3 -13552.4 -37.4022 22311.9
 17 03 2015  21 41  -14.5228 17723.7 -13552.6 -37.4037 22311.5
 17 03 2015  21 42  -14.5267 17722.4 -13552.7 -37.4058 22310.5
 17 03 2015  21 43  -14.5284 17722.4 -13553.0 -37.4065 22310.6
 17 03 2015  21 44  -14.5330 17722.1 -13553.3 -37.4074 22310.7
 17 03 2015  21 45  -14.5388 17722.4 -13553.3 -37.4072 22310.9
 17 03 2015  21 46  -14.5441 17723.2 -13553.5 -37.4062 22311.6
 17 03 2015  21 47  -14.5481 17724.3 -13553.6 -37.4047 22312.5
 17 03 2015  21 48  -14.5506 17724.8 -13553.5 -37.4037 22312.9
 17 03 2015  21 49  -14.5537 17725.1 -13553.3 -37.4028 22313.1
 17 03 2015  21 50  -14.5542 17726.2 -13553.4 -37.4013 22314.0
 17 03 2015  21 51  -14.5527 17728.5 -13553.8 -37.3985 22316.1
 17 03 2015  21 52  -14.5513 17730.8 -13554.0 -37.3954 22317.9
 17 03 2015  21 53  -14.5503 17732.4 -13553.9 -37.3927 22319.2
 17 03 2015  21 54  -14.5478 17734.8 -13553.8 -37.3887 22321.0
 17 03 2015  21 55  -14.5463 17735.9 -13553.7 -37.3870 22321.8
 17 03 2015  21 56  -14.5454 17736.7 -13553.4 -37.3848 22322.3
 17 03 2015  21 57  -14.5490 17736.7 -13552.8 -37.3838 22321.9
 17 03 2015  21 58  -14.5534 17736.0 -13552.4 -37.3840 22321.2
 17 03 2015  21 59  -14.5567 17735.8 -13551.8 -37.3832 22320.6
 17 03 2015  22 00  -14.5606 17736.0 -13551.8 -37.3827 22320.7
 17 03 2015  22 01  -14.5655 17736.1 -13551.5 -37.3821 22320.7
 17 03 2015  22 02  -14.5660 17737.8 -13551.7 -37.3799 22322.1
 17 03 2015  22 03  -14.5661 17738.7 -13551.7 -37.3784 22322.8
 17 03 2015  22 04  -14.5658 17739.0 -13551.5 -37.3776 22322.9
 17 03 2015  22 05  -14.5656 17738.9 -13551.3 -37.3773 22322.8
 17 03 2015  22 06  -14.5659 17738.5 -13550.9 -37.3772 22322.2
 17 03 2015  22 07  -14.5671 17736.9 -13550.5 -37.3787 22320.7
 17 03 2015  22 08  -14.5664 17736.6 -13550.6 -37.3794 22320.5
 17 03 2015  22 09  -14.5638 17735.8 -13550.6 -37.3806 22319.9
 17 03 2015  22 10  -14.5610 17736.0 -13550.8 -37.3807 22320.1
 17 03 2015  22 11  -14.5592 17736.0 -13550.7 -37.3806 22320.1
 17 03 2015  22 12  -14.5556 17737.2 -13551.0 -37.3791 22321.2
 17 03 2015  22 13  -14.5530 17737.9 -13551.2 -37.3786 22322.0
 17 03 2015  22 14  -14.5516 17737.6 -13551.1 -37.3789 22321.6
 17 03 2015  22 15  -14.5511 17736.4 -13550.7 -37.3799 22320.5
 17 03 2015  22 16  -14.5493 17735.0 -13550.6 -37.3819 22319.2
 17 03 2015  22 17  -14.5466 17733.7 -13550.6 -37.3840 22318.2
 17 03 2015  22 18  -14.5451 17732.1 -13550.6 -37.3864 22317.0
 17 03 2015  22 19  -14.5440 17730.8 -13550.7 -37.3887 22315.9
 17 03 2015  22 20  -14.5451 17729.8 -13550.9 -37.3905 22315.3
 17 03 2015  22 21  -14.5444 17730.3 -13551.3 -37.3908 22315.9
 17 03 2015  22 22  -14.5429 17732.0 -13551.9 -37.3893 22317.7
 17 03 2015  22 23  -14.5430 17733.1 -13552.4 -37.3885 22318.8
 17 03 2015  22 24  -14.5442 17733.4 -13552.4 -37.3881 22319.1
 17 03 2015  22 25  -14.5443 17734.6 -13552.8 -37.3869 22320.3
 17 03 2015  22 26  -14.5439 17736.5 -13553.0 -37.3844 22321.9
 17 03 2015  22 27  -14.5446 17737.4 -13553.1 -37.3833 22322.7
 17 03 2015  22 28  -14.5460 17737.6 -13552.8 -37.3823 22322.7
 17 03 2015  22 29  -14.5485 17736.1 -13552.3 -37.3837 22321.2
 17 03 2015  22 30  -14.5490 17736.2 -13552.3 -37.3835 22321.2
 17 03 2015  22 31  -14.5510 17735.7 -13552.3 -37.3843 22320.9
 17 03 2015  22 32  -14.5541 17734.4 -13552.0 -37.3858 22319.6
 17 03 2015  22 33  -14.5543 17735.1 -13552.2 -37.3851 22320.3
 17 03 2015  22 34  -14.5533 17736.0 -13552.5 -37.3842 22321.2
 17 03 2015  22 35  -14.5535 17735.7 -13552.4 -37.3845 22320.9
 17 03 2015  22 36  -14.5553 17734.2 -13552.2 -37.3864 22319.6
 17 03 2015  22 37  -14.5564 17732.9 -13552.0 -37.3880 22318.4
 17 03 2015  22 38  -14.5554 17732.2 -13551.9 -37.3890 22317.8
 17 03 2015  22 39  -14.5544 17731.2 -13552.0 -37.3906 22317.1
 17 03 2015  22 40  -14.5534 17730.5 -13552.1 -37.3920 22316.6
 17 03 2015  22 41  -14.5497 17731.2 -13552.5 -37.3918 22317.4
 17 03 2015  22 42  -14.5437 17733.0 -13553.2 -37.3903 22319.2
 17 03 2015  22 43  -14.5432 17730.0 -13552.6 -37.3938 22316.4
 17 03 2015  22 44  -14.5417 17728.8 -13552.5 -37.3956 22315.5
 17 03 2015  22 45  -14.5390 17728.9 -13552.8 -37.3958 22315.7
 17 03 2015  22 46  -14.5377 17728.2 -13552.9 -37.3972 22315.2
 17 03 2015  22 47  -14.5353 17728.2 -13553.1 -37.3975 22315.4
 17 03 2015  22 48  -14.5299 17730.1 -13553.8 -37.3961 22317.3
 17 03 2015  22 49  -14.5262 17730.7 -13554.2 -37.3959 22318.1
 17 03 2015  22 50  -14.5237 17730.5 -13554.1 -37.3961 22317.8
 17 03 2015  22 51  -14.5219 17730.2 -13554.1 -37.3967 22317.6
 17 03 2015  22 52  -14.5197 17730.5 -13554.1 -37.3961 22317.8
 17 03 2015  22 53  -14.5177 17729.8 -13554.2 -37.3972 22317.3
 17 03 2015  22 54  -14.5168 17728.7 -13554.1 -37.3988 22316.3
 17 03 2015  22 55  -14.5147 17728.3 -13554.2 -37.3996 22316.1
 17 03 2015  22 56  -14.5115 17727.5 -13554.3 -37.4011 22315.6
 17 03 2015  22 57  -14.5104 17726.5 -13554.3 -37.4027 22314.8
 17 03 2015  22 58  -14.5085 17725.3 -13554.4 -37.4048 22313.8
 17 03 2015  22 59  -14.5074 17723.6 -13554.3 -37.4072 22312.4
 17 03 2015  23 00  -14.5054 17724.1 -13555.0 -37.4078 22313.3
 17 03 2015  23 01  -14.5010 17724.9 -13555.6 -37.4079 22314.2
 17 03 2015  23 02  -14.4986 17723.7 -13555.7 -37.4099 22313.4
 17 03 2015  23 03  -14.5001 17723.2 -13555.9 -37.4110 22313.1
 17 03 2015  23 04  -14.4985 17720.6 -13555.5 -37.4144 22310.8
 17 03 2015  23 05  -14.5035 17723.0 -13556.5 -37.4127 22313.3
 17 03 2015  23 06  -14.5051 17719.0 -13555.6 -37.4170 22309.6
 17 03 2015  23 07  -14.5097 17719.0 -13556.0 -37.4178 22309.8
 17 03 2015  23 08  -14.5007 17720.2 -13556.7 -37.4175 22311.2
 17 03 2015  23 09  -14.4985 17716.3 -13556.4 -37.4229 22308.0
 17 03 2015  23 10  -14.5027 17714.3 -13556.8 -37.4268 22306.6
 17 03 2015  23 11  -14.5105 17709.2 -13556.4 -37.4339 22302.3
 17 03 2015  23 12  -14.5226 17703.0 -13555.9 -37.4427 22297.1
 17 03 2015  23 13  -14.5400 17698.5 -13556.0 -37.4499 22293.5
 17 03 2015  23 14  -14.5526 17698.3 -13557.0 -37.4524 22294.0
 17 03 2015  23 15  -14.5638 17699.0 -13558.1 -37.4535 22295.2
 17 03 2015  23 16  -14.5765 17697.5 -13558.2 -37.4560 22294.1
 17 03 2015  23 17  -14.5916 17698.5 -13558.9 -37.4558 22295.3
 17 03 2015  23 18  -14.6062 17700.8 -13559.4 -37.4531 22297.4
 17 03 2015  23 19  -14.6171 17702.3 -13559.4 -37.4510 22298.6
 17 03 2015  23 20  -14.6265 17706.1 -13559.9 -37.4459 22301.9
 17 03 2015  23 21  -14.6317 17709.9 -13559.9 -37.4400 22305.0
 17 03 2015  23 22  -14.6307 17712.9 -13559.7 -37.4350 22307.2
 17 03 2015  23 23  -14.6304 17715.1 -13559.4 -37.4309 22308.8
 17 03 2015  23 24  -14.6304 17716.5 -13559.1 -37.4282 22309.7
 17 03 2015  23 25  -14.6306 17718.0 -13558.8 -37.4252 22310.8
 17 03 2015  23 26  -14.6288 17720.0 -13558.5 -37.4214 22312.1
 17 03 2015  23 27  -14.6333 17722.9 -13558.7 -37.4174 22314.6
 17 03 2015  23 28  -14.6367 17726.0 -13558.6 -37.4122 22316.9
 17 03 2015  23 29  -14.6390 17729.2 -13558.4 -37.4069 22319.4
 17 03 2015  23 30  -14.6452 17730.2 -13557.5 -37.4034 22319.6
 17 03 2015  23 31  -14.6514 17731.5 -13556.6 -37.3996 22320.2
 17 03 2015  23 32  -14.6570 17734.5 -13556.4 -37.3945 22322.4
 17 03 2015  23 33  -14.6605 17737.5 -13555.9 -37.3890 22324.4
 17 03 2015  23 34  -14.6672 17738.7 -13555.1 -37.3852 22324.9
 17 03 2015  23 35  -14.6715 17740.4 -13554.3 -37.3811 22325.7
 17 03 2015  23 36  -14.6734 17743.6 -13554.1 -37.3757 22328.2
 17 03 2015  23 37  -14.6768 17746.9 -13553.8 -37.3697 22330.7
 17 03 2015  23 38  -14.6813 17749.9 -13553.2 -37.3640 22332.7
 17 03 2015  23 39  -14.6874 17750.7 -13552.3 -37.3610 22332.7
 17 03 2015  23 40  -14.6943 17752.4 -13551.6 -37.3569 22333.7
 17 03 2015  23 41  -14.7026 17753.9 -13550.8 -37.3528 22334.4
 17 03 2015  23 42  -14.7072 17756.2 -13550.3 -37.3482 22335.9
 17 03 2015  23 43  -14.7105 17759.4 -13550.0 -37.3426 22338.3
 17 03 2015  23 44  -14.7143 17759.5 -13548.9 -37.3402 22337.7
 17 03 2015  23 45  -14.7181 17760.2 -13548.1 -37.3375 22337.8
 17 03 2015  23 46  -14.7188 17760.4 -13547.3 -37.3357 22337.4
 17 03 2015  23 47  -14.7176 17761.3 -13546.9 -37.3334 22337.9
 17 03 2015  23 48  -14.7174 17763.2 -13546.8 -37.3303 22339.4
 17 03 2015  23 49  -14.7171 17764.9 -13546.5 -37.3271 22340.5
 17 03 2015  23 50  -14.7150 17767.4 -13546.4 -37.3230 22342.4
 17 03 2015  23 51  -14.7120 17769.5 -13546.0 -37.3189 22343.9
 17 03 2015  23 52  -14.7095 17771.4 -13545.7 -37.3154 22345.2
 17 03 2015  23 53  -14.7050 17772.2 -13545.0 -37.3127 22345.4
 17 03 2015  23 54  -14.7005 17773.8 -13544.9 -37.3098 22346.7
 17 03 2015  23 55  -14.6965 17775.4 -13544.6 -37.3067 22347.7
 17 03 2015  23 56  -14.6920 17776.4 -13544.2 -37.3045 22348.3
 17 03 2015  23 57  -14.6872 17776.6 -13543.8 -37.3033 22348.2
 17 03 2015  23 58  -14.6846 17777.5 -13543.6 -37.3015 22348.8
