CACHOEIRA PAULISTA EMBRACE-05 <263> 1 Min. Reported data

 DD MM YYYY  HH MM   D(Deg)  H(nT)   Z(nT)   I(Deg)   F(nT)

 20 09 2015  00 00  -21.5598 18619.0 -13766.1 -36.4776 23155.4
 20 09 2015  00 01  -21.5603 18618.3 -13766.2 -36.4787 23154.9
 20 09 2015  00 02  -21.5604 18618.0 -13766.4 -36.4797 23154.8
 20 09 2015  00 03  -21.5597 18618.0 -13766.5 -36.4798 23154.9
 20 09 2015  00 04  -21.5586 18618.4 -13766.6 -36.4794 23155.2
 20 09 2015  00 05  -21.5572 18619.6 -13766.5 -36.4776 23156.1
 20 09 2015  00 06  -21.5583 18619.1 -13766.5 -36.4782 23155.7
 20 09 2015  00 07  -21.5588 18619.4 -13766.5 -36.4778 23155.9
 20 09 2015  00 08  -21.5579 18620.1 -13766.4 -36.4765 23156.5
 20 09 2015  00 09  -21.5573 18620.6 -13766.3 -36.4756 23156.8
 20 09 2015  00 10  -21.5571 18621.2 -13766.2 -36.4745 23157.2
 20 09 2015  00 11  -21.5564 18622.5 -13766.0 -36.4722 23158.2
 20 09 2015  00 12  -21.5554 18623.8 -13765.7 -36.4697 23159.0
 20 09 2015  00 13  -21.5544 18625.2 -13765.4 -36.4671 23160.0
 20 09 2015  00 14  -21.5532 18626.5 -13765.1 -36.4647 23160.8
 20 09 2015  00 15  -21.5520 18627.8 -13764.9 -36.4622 23161.7
 20 09 2015  00 16  -21.5510 18628.7 -13764.6 -36.4603 23162.3
 20 09 2015  00 17  -21.5491 18630.1 -13764.4 -36.4580 23163.3
 20 09 2015  00 18  -21.5477 18631.1 -13764.2 -36.4560 23164.0
 20 09 2015  00 19  -21.5476 18631.0 -13764.1 -36.4559 23163.8
 20 09 2015  00 20  -21.5476 18630.9 -13764.1 -36.4562 23163.8
 20 09 2015  00 21  -21.5472 18631.4 -13764.2 -36.4555 23164.2
 20 09 2015  00 22  -21.5470 18631.7 -13764.2 -36.4551 23164.4
 20 09 2015  00 23  -21.5468 18631.5 -13764.2 -36.4554 23164.4
 20 09 2015  00 24  -21.5470 18631.2 -13764.3 -36.4562 23164.1
 20 09 2015  00 25  -21.5476 18630.7 -13764.5 -36.4571 23163.8
 20 09 2015  00 26  -21.5475 18630.4 -13764.6 -36.4579 23163.7
 20 09 2015  00 27  -21.5473 18630.2 -13764.8 -36.4585 23163.6
 20 09 2015  00 28  -21.5474 18629.9 -13764.9 -36.4592 23163.5
 20 09 2015  00 29  -21.5477 18629.3 -13765.1 -36.4603 23163.1
 20 09 2015  00 30  -21.5477 18628.9 -13765.3 -36.4613 23162.9
 20 09 2015  00 31  -21.5477 18628.6 -13765.4 -36.4622 23162.7
 20 09 2015  00 32  -21.5475 18628.1 -13765.7 -36.4632 23162.5
 20 09 2015  00 33  -21.5474 18627.6 -13765.8 -36.4644 23162.2
 20 09 2015  00 34  -21.5477 18626.9 -13766.0 -36.4657 23161.7
 20 09 2015  00 35  -21.5479 18626.3 -13766.3 -36.4672 23161.4
 20 09 2015  00 36  -21.5477 18625.8 -13766.5 -36.4684 23161.1
 20 09 2015  00 37  -21.5476 18625.2 -13766.7 -36.4696 23160.8
 20 09 2015  00 38  -21.5473 18624.8 -13766.9 -36.4708 23160.5
 20 09 2015  00 39  -21.5471 18624.6 -13767.1 -36.4714 23160.5
 20 09 2015  00 40  -21.5473 18624.4 -13767.2 -36.4718 23160.4
 20 09 2015  00 41  -21.5474 18624.1 -13767.4 -36.4726 23160.2
 20 09 2015  00 42  -21.5476 18623.8 -13767.5 -36.4732 23160.1
 20 09 2015  00 43  -21.5479 18623.4 -13767.6 -36.4740 23159.8
 20 09 2015  00 44  -21.5481 18623.2 -13767.7 -36.4745 23159.7
 20 09 2015  00 45  -21.5484 18623.1 -13767.8 -36.4749 23159.6
 20 09 2015  00 46  -21.5491 18622.9 -13767.8 -36.4752 23159.5
 20 09 2015  00 47  -21.5500 18622.5 -13767.8 -36.4758 23159.2
 20 09 2015  00 48  -21.5506 18622.0 -13768.0 -36.4769 23158.9
 20 09 2015  00 49  -21.5504 18621.5 -13768.1 -36.4779 23158.6
 20 09 2015  00 50  -21.5496 18621.4 -13768.3 -36.4783 23158.6
 20 09 2015  00 51  -21.5486 18621.4 -13768.4 -36.4786 23158.7
 20 09 2015  00 52  -21.5477 18621.6 -13768.5 -36.4785 23159.0
 20 09 2015  00 53  -21.5479 18621.8 -13768.6 -36.4784 23159.1
 20 09 2015  00 54  -21.5484 18621.6 -13768.6 -36.4786 23159.0
 20 09 2015  00 55  -21.5482 18621.4 -13768.7 -36.4791 23158.9
 20 09 2015  00 56  -21.5483 18621.2 -13768.8 -36.4797 23158.7
 20 09 2015  00 57  -21.5483 18621.0 -13768.9 -36.4801 23158.7
 20 09 2015  00 58  -21.5488 18620.9 -13768.9 -36.4803 23158.7
 20 09 2015  00 59  -21.5500 18620.6 -13769.0 -36.4810 23158.4
 20 09 2015  01 00  -21.5517 18619.9 -13769.1 -36.4822 23157.9
 20 09 2015  01 01  -21.5531 18619.3 -13769.2 -36.4832 23157.5
 20 09 2015  01 02  -21.5542 18618.8 -13769.3 -36.4842 23157.1
 20 09 2015  01 03  -21.5551 18618.4 -13769.3 -36.4849 23156.8
 20 09 2015  01 04  -21.5557 18618.1 -13769.4 -36.4854 23156.7
 20 09 2015  01 05  -21.5565 18617.8 -13769.4 -36.4858 23156.4
 20 09 2015  01 06  -21.5571 18617.5 -13769.5 -36.4865 23156.2
 20 09 2015  01 07  -21.5577 18617.1 -13769.5 -36.4871 23155.9
 20 09 2015  01 08  -21.5580 18616.8 -13769.5 -36.4876 23155.7
 20 09 2015  01 09  -21.5582 18616.8 -13769.5 -36.4877 23155.7
 20 09 2015  01 10  -21.5584 18616.9 -13769.5 -36.4875 23155.7
 20 09 2015  01 11  -21.5586 18616.8 -13769.5 -36.4875 23155.7
 20 09 2015  01 12  -21.5586 18616.7 -13769.5 -36.4878 23155.5
 20 09 2015  01 13  -21.5584 18616.4 -13769.5 -36.4881 23155.4
 20 09 2015  01 14  -21.5584 18616.1 -13769.6 -36.4888 23155.1
 20 09 2015  01 15  -21.5582 18616.0 -13769.6 -36.4891 23155.1
 20 09 2015  01 16  -21.5581 18616.0 -13769.7 -36.4891 23155.1
 20 09 2015  01 17  -21.5581 18616.1 -13769.7 -36.4891 23155.2
 20 09 2015  01 18  -21.5582 18616.0 -13769.7 -36.4891 23155.1
 20 09 2015  01 19  -21.5579 18616.0 -13769.7 -36.4890 23155.1
 20 09 2015  01 20  -21.5574 18616.0 -13769.7 -36.4891 23155.1
 20 09 2015  01 21  -21.5569 18616.1 -13769.7 -36.4890 23155.2
 20 09 2015  01 22  -21.5569 18615.9 -13769.7 -36.4894 23155.1
 20 09 2015  01 23  -21.5570 18615.7 -13769.8 -36.4897 23155.0
 20 09 2015  01 24  -21.5570 18615.5 -13769.8 -36.4902 23154.8
 20 09 2015  01 25  -21.5568 18615.4 -13769.9 -36.4904 23154.8
 20 09 2015  01 26  -21.5568 18615.5 -13769.9 -36.4902 23154.8
 20 09 2015  01 27  -21.5565 18615.8 -13769.8 -36.4897 23155.0
 20 09 2015  01 28  -21.5563 18616.0 -13769.8 -36.4894 23155.2
 20 09 2015  01 29  -21.5562 18616.1 -13769.8 -36.4891 23155.3
 20 09 2015  01 30  -21.5560 18616.4 -13769.7 -36.4885 23155.5
 20 09 2015  01 31  -21.5559 18616.6 -13769.7 -36.4882 23155.6
 20 09 2015  01 32  -21.5554 18616.9 -13769.6 -36.4877 23155.8
 20 09 2015  01 33  -21.5550 18617.2 -13769.6 -36.4871 23156.0
 20 09 2015  01 34  -21.5545 18617.5 -13769.5 -36.4866 23156.2
 20 09 2015  01 35  -21.5543 18617.6 -13769.5 -36.4864 23156.3
 20 09 2015  01 36  -21.5542 18617.6 -13769.5 -36.4863 23156.3
 20 09 2015  01 37  -21.5544 18617.6 -13769.4 -36.4862 23156.2
 20 09 2015  01 38  -21.5549 18617.4 -13769.4 -36.4865 23156.1
 20 09 2015  01 39  -21.5552 18617.3 -13769.4 -36.4867 23156.0
 20 09 2015  01 40  -21.5550 18617.2 -13769.4 -36.4868 23156.0
 20 09 2015  01 41  -21.5544 18617.2 -13769.5 -36.4869 23156.0
 20 09 2015  01 42  -21.5537 18617.3 -13769.5 -36.4869 23156.1
 20 09 2015  01 43  -21.5532 18617.5 -13769.6 -36.4867 23156.2
 20 09 2015  01 44  -21.5533 18617.6 -13769.6 -36.4866 23156.3
 20 09 2015  01 45  -21.5533 18617.6 -13769.6 -36.4865 23156.3
 20 09 2015  01 46  -21.5528 18617.8 -13769.6 -36.4862 23156.5
 20 09 2015  01 47  -21.5524 18618.3 -13769.5 -36.4855 23156.9
 20 09 2015  01 48  -21.5513 18619.4 -13769.4 -36.4835 23157.7
 20 09 2015  01 49  -21.5504 18620.1 -13769.3 -36.4823 23158.2
 20 09 2015  01 50  -21.5496 18620.9 -13769.1 -36.4808 23158.7
 20 09 2015  01 51  -21.5495 18621.2 -13769.0 -36.4801 23158.9
 20 09 2015  01 52  -21.5495 18621.5 -13768.9 -36.4794 23159.1
 20 09 2015  01 53  -21.5494 18622.0 -13768.7 -36.4785 23159.3
 20 09 2015  01 54  -21.5493 18622.2 -13768.6 -36.4779 23159.5
 20 09 2015  01 55  -21.5491 18622.4 -13768.6 -36.4775 23159.6
 20 09 2015  01 56  -21.5489 18622.6 -13768.5 -36.4771 23159.7
 20 09 2015  01 57  -21.5491 18622.6 -13768.5 -36.4771 23159.7
 20 09 2015  01 58  -21.5491 18622.6 -13768.4 -36.4770 23159.7
 20 09 2015  01 59  -21.5491 18622.4 -13768.4 -36.4772 23159.6
 20 09 2015  02 00  -21.5495 18622.2 -13768.5 -36.4776 23159.4
 20 09 2015  02 01  -21.5497 18622.0 -13768.5 -36.4779 23159.3
 20 09 2015  02 02  -21.5502 18621.9 -13768.5 -36.4781 23159.2
 20 09 2015  02 03  -21.5508 18621.8 -13768.5 -36.4783 23159.1
 20 09 2015  02 04  -21.5513 18621.9 -13768.6 -36.4782 23159.2
 20 09 2015  02 05  -21.5517 18622.0 -13768.6 -36.4781 23159.3
 20 09 2015  02 06  -21.5524 18621.8 -13768.6 -36.4784 23159.2
 20 09 2015  02 07  -21.5525 18621.9 -13768.6 -36.4784 23159.2
 20 09 2015  02 08  -21.5529 18622.0 -13768.6 -36.4783 23159.3
 20 09 2015  02 09  -21.5530 18622.1 -13768.7 -36.4781 23159.4
 20 09 2015  02 10  -21.5535 18622.3 -13768.6 -36.4778 23159.5
 20 09 2015  02 11  -21.5542 18622.2 -13768.6 -36.4778 23159.5
 20 09 2015  02 12  -21.5547 18622.1 -13768.6 -36.4780 23159.4
 20 09 2015  02 13  -21.5550 18622.1 -13768.6 -36.4780 23159.4
 20 09 2015  02 14  -21.5552 18622.0 -13768.7 -36.4782 23159.4
 20 09 2015  02 15  -21.5555 18622.2 -13768.7 -36.4781 23159.5
 20 09 2015  02 16  -21.5556 18622.2 -13768.7 -36.4779 23159.5
 20 09 2015  02 17  -21.5554 18622.5 -13768.6 -36.4774 23159.7
 20 09 2015  02 18  -21.5555 18622.9 -13768.5 -36.4767 23160.0
 20 09 2015  02 19  -21.5553 18623.2 -13768.5 -36.4761 23160.1
 20 09 2015  02 20  -21.5548 18623.7 -13768.4 -36.4751 23160.5
 20 09 2015  02 21  -21.5543 18624.2 -13768.3 -36.4743 23160.9
 20 09 2015  02 22  -21.5536 18624.8 -13768.2 -36.4732 23161.3
 20 09 2015  02 23  -21.5532 18625.4 -13768.1 -36.4721 23161.7
 20 09 2015  02 24  -21.5531 18625.5 -13768.0 -36.4718 23161.8
 20 09 2015  02 25  -21.5525 18625.8 -13768.0 -36.4713 23162.0
 20 09 2015  02 26  -21.5521 18626.1 -13768.0 -36.4709 23162.2
 20 09 2015  02 27  -21.5518 18626.2 -13768.0 -36.4708 23162.3
 20 09 2015  02 28  -21.5517 18626.2 -13768.0 -36.4707 23162.3
 20 09 2015  02 29  -21.5514 18626.3 -13768.0 -36.4707 23162.4
 20 09 2015  02 30  -21.5515 18626.3 -13768.1 -36.4707 23162.4
 20 09 2015  02 31  -21.5513 18626.5 -13768.1 -36.4705 23162.6
 20 09 2015  02 32  -21.5512 18626.9 -13768.1 -36.4699 23162.9
 20 09 2015  02 33  -21.5512 18627.2 -13768.1 -36.4694 23163.1
 20 09 2015  02 34  -21.5517 18627.3 -13768.0 -36.4692 23163.2
 20 09 2015  02 35  -21.5522 18627.2 -13768.0 -36.4693 23163.1
 20 09 2015  02 36  -21.5529 18626.6 -13768.0 -36.4702 23162.7
 20 09 2015  02 37  -21.5535 18626.2 -13768.1 -36.4710 23162.4
 20 09 2015  02 38  -21.5540 18625.9 -13768.2 -36.4716 23162.2
 20 09 2015  02 39  -21.5545 18625.6 -13768.3 -36.4722 23162.0
 20 09 2015  02 40  -21.5547 18625.6 -13768.3 -36.4723 23162.0
 20 09 2015  02 41  -21.5550 18625.7 -13768.3 -36.4721 23162.1
 20 09 2015  02 42  -21.5551 18625.9 -13768.3 -36.4718 23162.3
 20 09 2015  02 43  -21.5545 18626.3 -13768.3 -36.4711 23162.6
 20 09 2015  02 44  -21.5547 18626.5 -13768.2 -36.4708 23162.7
 20 09 2015  02 45  -21.5550 18626.3 -13768.3 -36.4712 23162.5
 20 09 2015  02 46  -21.5543 18626.4 -13768.3 -36.4710 23162.7
 20 09 2015  02 47  -21.5545 18626.2 -13768.3 -36.4714 23162.5
 20 09 2015  02 48  -21.5543 18626.0 -13768.3 -36.4717 23162.3
 20 09 2015  02 49  -21.5543 18625.9 -13768.4 -36.4720 23162.3
 20 09 2015  02 50  -21.5541 18625.6 -13768.4 -36.4724 23162.1
 20 09 2015  02 51  -21.5543 18625.4 -13768.5 -36.4729 23161.9
 20 09 2015  02 52  -21.5549 18625.1 -13768.5 -36.4734 23161.8
 20 09 2015  02 53  -21.5555 18624.8 -13768.6 -36.4741 23161.6
 20 09 2015  02 54  -21.5558 18624.6 -13768.7 -36.4745 23161.4
 20 09 2015  02 55  -21.5563 18624.5 -13768.7 -36.4747 23161.4
 20 09 2015  02 56  -21.5571 18624.3 -13768.8 -36.4751 23161.3
 20 09 2015  02 57  -21.5577 18623.9 -13768.8 -36.4758 23161.0
 20 09 2015  02 58  -21.5581 18623.6 -13768.9 -36.4764 23160.8
 20 09 2015  02 59  -21.5586 18623.4 -13769.0 -36.4768 23160.7
 20 09 2015  03 00  -21.5594 18623.1 -13769.1 -36.4775 23160.4
 20 09 2015  03 01  -21.5605 18622.3 -13769.2 -36.4789 23159.8
 20 09 2015  03 02  -21.5616 18621.5 -13769.3 -36.4803 23159.3
 20 09 2015  03 03  -21.5629 18620.7 -13769.5 -36.4818 23158.8
 20 09 2015  03 04  -21.5640 18620.1 -13769.6 -36.4829 23158.4
 20 09 2015  03 05  -21.5646 18619.8 -13769.7 -36.4837 23158.2
 20 09 2015  03 06  -21.5656 18619.3 -13769.9 -36.4846 23157.9
 20 09 2015  03 07  -21.5664 18619.0 -13769.9 -36.4851 23157.7
 20 09 2015  03 08  -21.5675 18618.8 -13769.9 -36.4856 23157.5
 20 09 2015  03 09  -21.5689 18618.3 -13770.0 -36.4862 23157.2
 20 09 2015  03 10  -21.5699 18618.0 -13770.0 -36.4869 23156.9
 20 09 2015  03 11  -21.5703 18617.9 -13770.1 -36.4871 23156.9
 20 09 2015  03 12  -21.5707 18617.9 -13770.1 -36.4870 23156.9
 20 09 2015  03 13  -21.5713 18617.9 -13770.1 -36.4871 23156.9
 20 09 2015  03 14  -21.5719 18617.9 -13770.1 -36.4871 23156.9
 20 09 2015  03 15  -21.5729 18617.8 -13770.1 -36.4873 23156.8
 20 09 2015  03 16  -21.5739 18617.6 -13770.0 -36.4874 23156.7
 20 09 2015  03 17  -21.5750 18617.4 -13770.0 -36.4877 23156.4
 20 09 2015  03 18  -21.5751 18617.3 -13770.1 -36.4880 23156.4
 20 09 2015  03 19  -21.5750 18617.2 -13770.1 -36.4881 23156.3
 20 09 2015  03 20  -21.5736 18617.2 -13770.2 -36.4883 23156.4
 20 09 2015  03 21  -21.5744 18616.5 -13770.3 -36.4895 23155.8
 20 09 2015  03 22  -21.5750 18616.0 -13770.4 -36.4906 23155.5
 20 09 2015  03 23  -21.5754 18615.5 -13770.5 -36.4915 23155.2
 20 09 2015  03 24  -21.5752 18615.4 -13770.6 -36.4919 23155.2
 20 09 2015  03 25  -21.5747 18615.5 -13770.7 -36.4918 23155.3
 20 09 2015  03 26  -21.5741 18615.8 -13770.7 -36.4915 23155.6
 20 09 2015  03 27  -21.5748 18615.5 -13770.7 -36.4920 23155.3
 20 09 2015  03 28  -21.5751 18615.4 -13770.8 -36.4921 23155.3
 20 09 2015  03 29  -21.5762 18615.2 -13770.8 -36.4924 23155.1
 20 09 2015  03 30  -21.5760 18615.5 -13770.8 -36.4920 23155.4
 20 09 2015  03 31  -21.5769 18615.2 -13770.7 -36.4923 23155.1
 20 09 2015  03 32  -21.5766 18615.4 -13770.7 -36.4920 23155.3
 20 09 2015  03 33  -21.5766 18615.6 -13770.7 -36.4916 23155.4
 20 09 2015  03 34  -21.5759 18616.0 -13770.6 -36.4909 23155.6
 20 09 2015  03 35  -21.5748 18616.6 -13770.4 -36.4897 23156.1
 20 09 2015  03 36  -21.5737 18617.8 -13770.2 -36.4876 23156.9
 20 09 2015  03 37  -21.5729 18619.2 -13770.0 -36.4850 23157.8
 20 09 2015  03 38  -21.5724 18620.4 -13769.7 -36.4825 23158.7
 20 09 2015  03 39  -21.5718 18622.0 -13769.3 -36.4795 23159.7
 20 09 2015  03 40  -21.5719 18623.2 -13768.9 -36.4769 23160.5
 20 09 2015  03 41  -21.5725 18624.3 -13768.5 -36.4747 23161.1
 20 09 2015  03 42  -21.5720 18625.4 -13768.2 -36.4725 23161.8
 20 09 2015  03 43  -21.5717 18626.2 -13768.0 -36.4706 23162.3
 20 09 2015  03 44  -21.5715 18626.9 -13767.8 -36.4692 23162.7
 20 09 2015  03 45  -21.5706 18627.8 -13767.6 -36.4676 23163.3
 20 09 2015  03 46  -21.5695 18628.8 -13767.4 -36.4658 23164.1
 20 09 2015  03 47  -21.5690 18629.8 -13767.2 -36.4640 23164.8
 20 09 2015  03 48  -21.5680 18631.0 -13767.0 -36.4618 23165.6
 20 09 2015  03 49  -21.5670 18632.0 -13766.8 -36.4599 23166.3
 20 09 2015  03 50  -21.5661 18633.0 -13766.6 -36.4580 23167.0
 20 09 2015  03 51  -21.5651 18633.9 -13766.5 -36.4564 23167.6
 20 09 2015  03 52  -21.5642 18634.7 -13766.3 -36.4550 23168.2
 20 09 2015  03 53  -21.5638 18635.3 -13766.2 -36.4538 23168.6
 20 09 2015  03 54  -21.5628 18636.2 -13766.1 -36.4524 23169.2
 20 09 2015  03 55  -21.5626 18636.6 -13766.0 -36.4515 23169.5
 20 09 2015  03 56  -21.5634 18636.8 -13765.9 -36.4509 23169.6
 20 09 2015  03 57  -21.5643 18636.8 -13765.8 -36.4508 23169.5
 20 09 2015  03 58  -21.5649 18636.6 -13765.8 -36.4511 23169.4
 20 09 2015  03 59  -21.5650 18636.4 -13765.8 -36.4515 23169.2
 20 09 2015  04 00  -21.5651 18635.9 -13765.9 -36.4522 23168.9
 20 09 2015  04 01  -21.5652 18635.6 -13766.0 -36.4530 23168.6
 20 09 2015  04 02  -21.5655 18635.1 -13766.1 -36.4539 23168.3
 20 09 2015  04 03  -21.5658 18634.5 -13766.2 -36.4550 23167.9
 20 09 2015  04 04  -21.5661 18634.0 -13766.3 -36.4558 23167.6
 20 09 2015  04 05  -21.5662 18633.5 -13766.4 -36.4569 23167.2
 20 09 2015  04 06  -21.5658 18633.3 -13766.5 -36.4572 23167.1
 20 09 2015  04 07  -21.5660 18633.1 -13766.5 -36.4577 23167.0
 20 09 2015  04 08  -21.5661 18632.8 -13766.6 -36.4581 23166.8
 20 09 2015  04 09  -21.5668 18632.5 -13766.6 -36.4587 23166.6
 20 09 2015  04 10  -21.5674 18632.3 -13766.6 -36.4590 23166.4
 20 09 2015  04 11  -21.5678 18632.0 -13766.6 -36.4594 23166.2
 20 09 2015  04 12  -21.5679 18631.9 -13766.6 -36.4595 23166.1
 20 09 2015  04 13  -21.5683 18631.4 -13766.6 -36.4603 23165.7
 20 09 2015  04 14  -21.5685 18631.0 -13766.7 -36.4610 23165.4
 20 09 2015  04 15  -21.5690 18630.6 -13766.7 -36.4618 23165.1
 20 09 2015  04 16  -21.5697 18630.1 -13766.8 -36.4626 23164.8
 20 09 2015  04 17  -21.5706 18629.7 -13766.8 -36.4632 23164.5
 20 09 2015  04 18  -21.5711 18629.4 -13766.8 -36.4637 23164.2
 20 09 2015  04 19  -21.5720 18629.1 -13766.9 -36.4643 23163.9
 20 09 2015  04 20  -21.5734 18628.8 -13766.9 -36.4647 23163.8
 20 09 2015  04 21  -21.5747 18628.6 -13766.8 -36.4649 23163.6
 20 09 2015  04 22  -21.5761 18628.3 -13766.8 -36.4652 23163.3
 20 09 2015  04 23  -21.5778 18628.0 -13766.8 -36.4657 23163.0
 20 09 2015  04 24  -21.5795 18627.6 -13766.7 -36.4662 23162.7
 20 09 2015  04 25  -21.5811 18627.1 -13766.7 -36.4668 23162.3
 20 09 2015  04 26  -21.5823 18626.7 -13766.7 -36.4676 23162.0
 20 09 2015  04 27  -21.5833 18626.3 -13766.8 -36.4683 23161.6
 20 09 2015  04 28  -21.5842 18625.9 -13766.8 -36.4688 23161.3
 20 09 2015  04 29  -21.5848 18625.5 -13766.8 -36.4694 23161.1
 20 09 2015  04 30  -21.5851 18625.3 -13766.8 -36.4697 23160.9
 20 09 2015  04 31  -21.5854 18625.4 -13766.8 -36.4695 23161.0
 20 09 2015  04 32  -21.5858 18625.4 -13766.8 -36.4695 23160.9
 20 09 2015  04 33  -21.5863 18625.3 -13766.7 -36.4696 23160.8
 20 09 2015  04 34  -21.5870 18625.0 -13766.7 -36.4699 23160.6
 20 09 2015  04 35  -21.5874 18625.0 -13766.7 -36.4699 23160.6
 20 09 2015  04 36  -21.5876 18625.0 -13766.6 -36.4698 23160.6
 20 09 2015  04 37  -21.5876 18624.9 -13766.6 -36.4700 23160.5
 20 09 2015  04 38  -21.5876 18624.9 -13766.7 -36.4700 23160.4
 20 09 2015  04 39  -21.5867 18625.3 -13766.6 -36.4694 23160.8
 20 09 2015  04 40  -21.5854 18625.9 -13766.6 -36.4684 23161.2
 20 09 2015  04 41  -21.5837 18626.4 -13766.5 -36.4674 23161.6
 20 09 2015  04 42  -21.5821 18626.7 -13766.4 -36.4668 23161.8
 20 09 2015  04 43  -21.5816 18626.4 -13766.4 -36.4674 23161.5
 20 09 2015  04 44  -21.5821 18625.6 -13766.5 -36.4687 23161.0
 20 09 2015  04 45  -21.5825 18625.0 -13766.7 -36.4698 23160.6
 20 09 2015  04 46  -21.5830 18624.5 -13766.8 -36.4709 23160.2
 20 09 2015  04 47  -21.5838 18624.0 -13766.9 -36.4719 23159.9
 20 09 2015  04 48  -21.5846 18623.5 -13767.0 -36.4727 23159.6
 20 09 2015  04 49  -21.5845 18623.4 -13767.1 -36.4731 23159.5
 20 09 2015  04 50  -21.5840 18623.3 -13767.2 -36.4734 23159.5
 20 09 2015  04 51  -21.5833 18623.5 -13767.3 -36.4733 23159.7
 20 09 2015  04 52  -21.5826 18623.7 -13767.3 -36.4731 23159.9
 20 09 2015  04 53  -21.5823 18623.8 -13767.3 -36.4729 23160.0
 20 09 2015  04 54  -21.5821 18623.7 -13767.3 -36.4731 23159.9
 20 09 2015  04 55  -21.5819 18623.3 -13767.4 -36.4738 23159.6
 20 09 2015  04 56  -21.5820 18622.9 -13767.5 -36.4746 23159.4
 20 09 2015  04 57  -21.5822 18622.5 -13767.6 -36.4753 23159.1
 20 09 2015  04 58  -21.5824 18622.1 -13767.7 -36.4761 23158.9
 20 09 2015  04 59  -21.5826 18621.8 -13767.8 -36.4768 23158.6
 20 09 2015  05 00  -21.5827 18621.4 -13767.9 -36.4775 23158.4
 20 09 2015  05 01  -21.5827 18621.2 -13767.9 -36.4780 23158.3
 20 09 2015  05 02  -21.5832 18621.0 -13768.0 -36.4784 23158.1
 20 09 2015  05 03  -21.5838 18620.9 -13768.0 -36.4784 23158.0
 20 09 2015  05 04  -21.5845 18620.8 -13767.9 -36.4786 23157.9
 20 09 2015  05 05  -21.5850 18620.7 -13767.9 -36.4786 23157.8
 20 09 2015  05 06  -21.5853 18620.6 -13767.8 -36.4786 23157.8
 20 09 2015  05 07  -21.5859 18620.6 -13767.8 -36.4785 23157.7
 20 09 2015  05 08  -21.5864 18620.5 -13767.8 -36.4786 23157.6
 20 09 2015  05 09  -21.5871 18620.4 -13767.7 -36.4788 23157.5
 20 09 2015  05 10  -21.5876 18620.0 -13767.7 -36.4793 23157.2
 20 09 2015  05 11  -21.5882 18619.6 -13767.8 -36.4799 23156.9
 20 09 2015  05 12  -21.5886 18619.2 -13767.8 -36.4806 23156.6
 20 09 2015  05 13  -21.5888 18619.0 -13767.9 -36.4811 23156.4
 20 09 2015  05 14  -21.5886 18618.7 -13767.9 -36.4816 23156.3
 20 09 2015  05 15  -21.5881 18618.7 -13768.0 -36.4817 23156.3
 20 09 2015  05 16  -21.5878 18618.7 -13768.0 -36.4818 23156.2
 20 09 2015  05 17  -21.5880 18618.3 -13768.0 -36.4825 23156.0
 20 09 2015  05 18  -21.5884 18618.0 -13768.1 -36.4830 23155.8
 20 09 2015  05 19  -21.5891 18617.7 -13768.1 -36.4835 23155.6
 20 09 2015  05 20  -21.5898 18617.5 -13768.2 -36.4839 23155.4
 20 09 2015  05 21  -21.5903 18617.4 -13768.2 -36.4841 23155.3
 20 09 2015  05 22  -21.5901 18617.3 -13768.2 -36.4841 23155.3
 20 09 2015  05 23  -21.5899 18617.5 -13768.2 -36.4839 23155.5
 20 09 2015  05 24  -21.5898 18617.8 -13768.2 -36.4835 23155.6
 20 09 2015  05 25  -21.5897 18618.0 -13768.1 -36.4831 23155.8
 20 09 2015  05 26  -21.5898 18617.9 -13768.1 -36.4832 23155.7
 20 09 2015  05 27  -21.5901 18617.7 -13768.1 -36.4834 23155.6
 20 09 2015  05 28  -21.5906 18617.6 -13768.1 -36.4836 23155.5
 20 09 2015  05 29  -21.5908 18617.5 -13768.1 -36.4838 23155.4
 20 09 2015  05 30  -21.5908 18617.5 -13768.1 -36.4837 23155.4
 20 09 2015  05 31  -21.5906 18617.7 -13768.1 -36.4835 23155.5
 20 09 2015  05 32  -21.5903 18617.8 -13768.1 -36.4832 23155.6
 20 09 2015  05 33  -21.5896 18617.8 -13768.1 -36.4832 23155.6
 20 09 2015  05 34  -21.5891 18617.7 -13768.1 -36.4834 23155.6
 20 09 2015  05 35  -21.5885 18617.6 -13768.1 -36.4836 23155.5
 20 09 2015  05 36  -21.5880 18617.5 -13768.2 -36.4839 23155.5
 20 09 2015  05 37  -21.5876 18617.4 -13768.3 -36.4843 23155.4
 20 09 2015  05 38  -21.5871 18617.2 -13768.3 -36.4846 23155.3
 20 09 2015  05 39  -21.5868 18617.1 -13768.4 -36.4849 23155.2
 20 09 2015  05 40  -21.5864 18616.8 -13768.4 -36.4854 23155.1
 20 09 2015  05 41  -21.5855 18616.7 -13768.5 -36.4858 23155.0
 20 09 2015  05 42  -21.5849 18616.6 -13768.6 -36.4859 23155.0
 20 09 2015  05 43  -21.5849 18616.6 -13768.6 -36.4862 23154.9
 20 09 2015  05 44  -21.5854 18616.5 -13768.6 -36.4862 23154.9
 20 09 2015  05 45  -21.5859 18616.6 -13768.6 -36.4861 23155.0
 20 09 2015  05 46  -21.5861 18616.7 -13768.6 -36.4859 23155.0
 20 09 2015  05 47  -21.5865 18616.8 -13768.6 -36.4857 23155.1
 20 09 2015  05 48  -21.5864 18616.9 -13768.6 -36.4855 23155.2
 20 09 2015  05 49  -21.5862 18617.0 -13768.6 -36.4854 23155.2
 20 09 2015  05 50  -21.5860 18617.1 -13768.6 -36.4853 23155.3
 20 09 2015  05 51  -21.5860 18617.1 -13768.5 -36.4852 23155.3
 20 09 2015  05 52  -21.5862 18617.1 -13768.5 -36.4853 23155.3
 20 09 2015  05 53  -21.5867 18617.1 -13768.5 -36.4852 23155.3
 20 09 2015  05 54  -21.5870 18617.0 -13768.5 -36.4852 23155.2
 20 09 2015  05 55  -21.5871 18616.9 -13768.5 -36.4854 23155.2
 20 09 2015  05 56  -21.5868 18617.0 -13768.5 -36.4853 23155.2
 20 09 2015  05 57  -21.5863 18617.2 -13768.4 -36.4849 23155.3
 20 09 2015  05 58  -21.5860 18617.2 -13768.4 -36.4849 23155.3
 20 09 2015  05 59  -21.5856 18617.1 -13768.4 -36.4850 23155.3
 20 09 2015  06 00  -21.5854 18616.8 -13768.5 -36.4856 23155.1
 20 09 2015  06 01  -21.5854 18616.5 -13768.6 -36.4862 23154.9
 20 09 2015  06 02  -21.5852 18616.2 -13768.7 -36.4868 23154.7
 20 09 2015  06 03  -21.5851 18616.3 -13768.8 -36.4869 23154.8
 20 09 2015  06 04  -21.5782 18623.2 -13768.5 -36.4762 23160.2
 20 09 2015  06 05  -21.5667 18632.3 -13767.3 -36.4603 23166.8
 20 09 2015  06 06  -21.5620 18637.7 -13766.0 -36.4499 23170.4
 20 09 2015  06 07  -21.5620 18640.9 -13765.0 -36.4431 23172.3
 20 09 2015  06 08  -21.5646 18641.8 -13764.3 -36.4404 23172.6
 20 09 2015  06 09  -21.5689 18641.3 -13763.9 -36.4405 23172.0
 20 09 2015  06 10  -21.5741 18640.6 -13763.7 -36.4410 23171.4
 20 09 2015  06 11  -21.5791 18639.6 -13763.6 -36.4422 23170.5
 20 09 2015  06 12  -21.5838 18638.8 -13763.5 -36.4434 23169.8
 20 09 2015  06 13  -21.5864 18639.0 -13763.4 -36.4428 23169.9
 20 09 2015  06 14  -21.5877 18639.6 -13763.2 -36.4415 23170.3
 20 09 2015  06 15  -21.5881 18640.3 -13763.0 -36.4401 23170.7
 20 09 2015  06 16  -21.5876 18640.8 -13762.8 -36.4390 23171.0
 20 09 2015  06 17  -21.5876 18640.9 -13762.7 -36.4387 23171.0
 20 09 2015  06 18  -21.5876 18641.1 -13762.6 -36.4382 23171.1
 20 09 2015  06 19  -21.5889 18639.8 -13762.6 -36.4402 23170.0
 20 09 2015  06 20  -21.5911 18636.9 -13762.9 -36.4450 23167.9
 20 09 2015  06 21  -21.5933 18634.2 -13763.4 -36.4500 23166.0
 20 09 2015  06 22  -21.5950 18632.6 -13763.9 -36.4531 23165.0
 20 09 2015  06 23  -21.5958 18632.0 -13764.2 -36.4547 23164.7
 20 09 2015  06 24  -21.5968 18631.7 -13764.3 -36.4554 23164.6
 20 09 2015  06 25  -21.5966 18632.1 -13764.4 -36.4551 23164.9
 20 09 2015  06 26  -21.5950 18633.1 -13764.4 -36.4535 23165.8
 20 09 2015  06 27  -21.5922 18634.9 -13764.3 -36.4506 23167.1
 20 09 2015  06 28  -21.5878 18636.0 -13764.2 -36.4488 23168.0
 20 09 2015  06 29  -21.5829 18636.8 -13764.3 -36.4477 23168.6
 20 09 2015  06 30  -21.5798 18638.0 -13764.2 -36.4460 23169.5
 20 09 2015  06 31  -21.5779 18639.4 -13764.1 -36.4436 23170.6
 20 09 2015  06 32  -21.5771 18640.0 -13764.0 -36.4426 23171.0
 20 09 2015  06 33  -21.5750 18640.3 -13764.0 -36.4421 23171.3
 20 09 2015  06 34  -21.5719 18637.7 -13764.4 -36.4467 23169.4
 20 09 2015  06 35  -21.5664 18636.0 -13765.1 -36.4506 23168.5
 20 09 2015  06 36  -21.5626 18635.0 -13765.8 -36.4534 23168.0
 20 09 2015  06 37  -21.5620 18634.2 -13766.2 -36.4554 23167.7
 20 09 2015  06 38  -21.5616 18634.5 -13766.5 -36.4556 23168.1
 20 09 2015  06 39  -21.5639 18634.7 -13766.6 -36.4555 23168.3
 20 09 2015  06 40  -21.5680 18634.2 -13766.6 -36.4562 23167.9
 20 09 2015  06 41  -21.5709 18633.9 -13766.6 -36.4566 23167.7
 20 09 2015  06 42  -21.5753 18634.2 -13766.4 -36.4559 23167.8
 20 09 2015  06 43  -21.5798 18634.0 -13766.3 -36.4559 23167.5
 20 09 2015  06 44  -21.5829 18633.1 -13766.2 -36.4571 23166.8
 20 09 2015  06 45  -21.5835 18632.7 -13766.3 -36.4578 23166.5
 20 09 2015  06 46  -21.5846 18632.0 -13766.3 -36.4589 23166.0
 20 09 2015  06 47  -21.5840 18630.9 -13766.5 -36.4609 23165.2
 20 09 2015  06 48  -21.5821 18629.3 -13766.9 -36.4641 23164.1
 20 09 2015  06 49  -21.5788 18628.4 -13767.4 -36.4664 23163.7
 20 09 2015  06 50  -21.5762 18627.5 -13767.8 -36.4686 23163.2
 20 09 2015  06 51  -21.5734 18626.5 -13768.3 -36.4709 23162.7
 20 09 2015  06 52  -21.5725 18626.5 -13768.6 -36.4714 23162.9
 20 09 2015  06 53  -21.5731 18627.2 -13768.6 -36.4705 23163.5
 20 09 2015  06 54  -21.5744 18627.7 -13768.5 -36.4697 23163.8
 20 09 2015  06 55  -21.5765 18627.5 -13768.5 -36.4698 23163.6
 20 09 2015  06 56  -21.5807 18627.4 -13768.4 -36.4697 23163.5
 20 09 2015  06 57  -21.5863 18626.9 -13768.2 -36.4701 23163.0
 20 09 2015  06 58  -21.5922 18626.7 -13768.0 -36.4701 23162.7
 20 09 2015  06 59  -21.5988 18625.8 -13767.8 -36.4709 23161.9
 20 09 2015  07 00  -21.6031 18625.2 -13767.7 -36.4716 23161.3
 20 09 2015  07 01  -21.6060 18624.4 -13767.6 -36.4726 23160.7
 20 09 2015  07 02  -21.6074 18623.9 -13767.7 -36.4734 23160.3
 20 09 2015  07 03  -21.6076 18623.5 -13767.7 -36.4741 23160.0
 20 09 2015  07 04  -21.6093 18623.1 -13767.7 -36.4747 23159.7
 20 09 2015  07 05  -21.6117 18622.4 -13767.8 -36.4758 23159.1
 20 09 2015  07 06  -21.6110 18622.1 -13767.8 -36.4764 23159.0
 20 09 2015  07 07  -21.6102 18621.9 -13767.9 -36.4769 23158.8
 20 09 2015  07 08  -21.6109 18621.6 -13768.0 -36.4775 23158.6
 20 09 2015  07 09  -21.6127 18621.6 -13768.0 -36.4775 23158.6
 20 09 2015  07 10  -21.6146 18620.9 -13768.0 -36.4786 23158.1
 20 09 2015  07 11  -21.6168 18619.4 -13768.2 -36.4812 23157.0
 20 09 2015  07 12  -21.6197 18618.3 -13768.4 -36.4832 23156.2
 20 09 2015  07 13  -21.6204 18618.2 -13768.6 -36.4837 23156.2
 20 09 2015  07 14  -21.6196 18618.1 -13768.6 -36.4838 23156.2
 20 09 2015  07 15  -21.6204 18617.6 -13768.7 -36.4847 23155.8
 20 09 2015  07 16  -21.6201 18617.7 -13768.7 -36.4847 23155.9
 20 09 2015  07 17  -21.6178 18616.6 -13768.9 -36.4865 23155.1
 20 09 2015  07 18  -21.6151 18615.1 -13769.2 -36.4895 23154.2
 20 09 2015  07 19  -21.6153 18614.5 -13769.5 -36.4910 23153.8
 20 09 2015  07 20  -21.6176 18614.6 -13769.5 -36.4908 23153.9
 20 09 2015  07 21  -21.6186 18614.2 -13769.5 -36.4914 23153.5
 20 09 2015  07 22  -21.6188 18613.9 -13769.5 -36.4919 23153.3
 20 09 2015  07 23  -21.6201 18612.9 -13769.6 -36.4935 23152.6
 20 09 2015  07 24  -21.6222 18613.4 -13769.5 -36.4926 23153.0
 20 09 2015  07 25  -21.6226 18614.2 -13769.3 -36.4910 23153.4
 20 09 2015  07 26  -21.6228 18615.1 -13769.0 -36.4891 23154.0
 20 09 2015  07 27  -21.6212 18616.7 -13768.7 -36.4862 23155.1
 20 09 2015  07 28  -21.6158 18617.6 -13768.5 -36.4845 23155.8
 20 09 2015  07 29  -21.6130 18618.0 -13768.5 -36.4838 23156.0
 20 09 2015  07 30  -21.6126 18618.6 -13768.4 -36.4827 23156.4
 20 09 2015  07 31  -21.6132 18619.1 -13768.2 -36.4817 23156.7
 20 09 2015  07 32  -21.6149 18619.5 -13768.0 -36.4806 23157.0
 20 09 2015  07 33  -21.6178 18619.6 -13767.9 -36.4802 23156.9
 20 09 2015  07 34  -21.6206 18619.2 -13767.8 -36.4807 23156.5
 20 09 2015  07 35  -21.6231 18619.0 -13767.8 -36.4809 23156.3
 20 09 2015  07 36  -21.6236 18620.2 -13767.6 -36.4787 23157.3
 20 09 2015  07 37  -21.6235 18620.7 -13767.3 -36.4776 23157.5
 20 09 2015  07 38  -21.6228 18621.7 -13767.2 -36.4757 23158.2
 20 09 2015  07 39  -21.6213 18622.6 -13767.0 -36.4740 23158.8
 20 09 2015  07 40  -21.6192 18623.3 -13766.9 -36.4728 23159.3
 20 09 2015  07 41  -21.6158 18623.9 -13766.9 -36.4720 23159.8
 20 09 2015  07 42  -21.6125 18623.7 -13767.0 -36.4724 23159.7
 20 09 2015  07 43  -21.6085 18623.4 -13767.2 -36.4733 23159.6
 20 09 2015  07 44  -21.6061 18622.7 -13767.5 -36.4749 23159.3
 20 09 2015  07 45  -21.6030 18622.3 -13767.9 -36.4762 23159.2
 20 09 2015  07 46  -21.6005 18621.3 -13768.3 -36.4785 23158.6
 20 09 2015  07 47  -21.5978 18619.1 -13768.9 -36.4830 23157.2
 20 09 2015  07 48  -21.5973 18618.1 -13769.5 -36.4857 23156.7
 20 09 2015  07 49  -21.5958 18618.9 -13769.9 -36.4853 23157.5
 20 09 2015  07 50  -21.5932 18619.7 -13770.1 -36.4844 23158.3
 20 09 2015  07 51  -21.5910 18620.6 -13770.1 -36.4832 23159.1
 20 09 2015  07 52  -21.5878 18621.5 -13770.2 -36.4821 23159.8
 20 09 2015  07 53  -21.5855 18622.2 -13770.2 -36.4810 23160.4
 20 09 2015  07 54  -21.5839 18622.8 -13770.2 -36.4800 23160.9
 20 09 2015  07 55  -21.5818 18623.2 -13770.1 -36.4793 23161.2
 20 09 2015  07 56  -21.5819 18623.0 -13770.1 -36.4796 23161.0
 20 09 2015  07 57  -21.5850 18622.6 -13770.1 -36.4802 23160.7
 20 09 2015  07 58  -21.5899 18622.5 -13770.0 -36.4802 23160.5
 20 09 2015  07 59  -21.5952 18622.0 -13769.8 -36.4806 23160.0
 20 09 2015  08 00  -21.6006 18621.4 -13769.6 -36.4810 23159.4
 20 09 2015  08 01  -21.6043 18621.0 -13769.4 -36.4812 23159.0
 20 09 2015  08 02  -21.6057 18620.7 -13769.2 -36.4813 23158.6
 20 09 2015  08 03  -21.6055 18620.2 -13769.2 -36.4819 23158.2
 20 09 2015  08 04  -21.6067 18619.9 -13769.1 -36.4821 23157.9
 20 09 2015  08 05  -21.6080 18619.5 -13768.9 -36.4824 23157.5
 20 09 2015  08 06  -21.6093 18619.3 -13768.8 -36.4825 23157.3
 20 09 2015  08 07  -21.6114 18618.9 -13768.7 -36.4829 23156.8
 20 09 2015  08 08  -21.6148 18618.4 -13768.5 -36.4834 23156.3
 20 09 2015  08 09  -21.6180 18618.2 -13768.4 -36.4833 23156.1
 20 09 2015  08 10  -21.6202 18618.4 -13768.2 -36.4825 23156.2
 20 09 2015  08 11  -21.6211 18618.6 -13767.9 -36.4818 23156.2
 20 09 2015  08 12  -21.6207 18618.5 -13767.8 -36.4816 23156.0
 20 09 2015  08 13  -21.6200 18619.2 -13767.6 -36.4804 23156.5
 20 09 2015  08 14  -21.6182 18620.1 -13767.4 -36.4785 23157.1
 20 09 2015  08 15  -21.6159 18619.7 -13767.3 -36.4789 23156.7
 20 09 2015  08 16  -21.6150 18618.7 -13767.3 -36.4805 23155.9
 20 09 2015  08 17  -21.6139 18617.9 -13767.5 -36.4820 23155.4
 20 09 2015  08 18  -21.6118 18617.7 -13767.7 -36.4827 23155.3
 20 09 2015  08 19  -21.6085 18618.2 -13767.8 -36.4821 23155.7
 20 09 2015  08 20  -21.6053 18618.9 -13767.8 -36.4811 23156.3
 20 09 2015  08 21  -21.6025 18619.0 -13767.8 -36.4810 23156.4
 20 09 2015  08 22  -21.6005 18618.7 -13767.9 -36.4816 23156.3
 20 09 2015  08 23  -21.5980 18618.0 -13768.1 -36.4831 23155.8
 20 09 2015  08 24  -21.5950 18617.2 -13768.5 -36.4850 23155.3
 20 09 2015  08 25  -21.5926 18616.4 -13768.8 -36.4868 23154.9
 20 09 2015  08 26  -21.5907 18616.4 -13769.0 -36.4873 23155.1
 20 09 2015  08 27  -21.5883 18616.6 -13769.2 -36.4872 23155.3
 20 09 2015  08 28  -21.5861 18616.9 -13769.2 -36.4869 23155.6
 20 09 2015  08 29  -21.5855 18617.9 -13769.2 -36.4854 23156.4
 20 09 2015  08 30  -21.5846 18618.7 -13769.1 -36.4840 23156.9
 20 09 2015  08 31  -21.5849 18618.5 -13769.0 -36.4841 23156.8
 20 09 2015  08 32  -21.5836 18617.4 -13769.2 -36.4860 23156.0
 20 09 2015  08 33  -21.5820 18616.9 -13769.4 -36.4871 23155.7
 20 09 2015  08 34  -21.5805 18616.4 -13769.5 -36.4882 23155.4
 20 09 2015  08 35  -21.5798 18616.1 -13769.7 -36.4890 23155.2
 20 09 2015  08 36  -21.5783 18616.1 -13769.7 -36.4891 23155.2
 20 09 2015  08 37  -21.5778 18615.2 -13769.8 -36.4905 23154.6
 20 09 2015  08 38  -21.5779 18614.4 -13769.9 -36.4920 23154.0
 20 09 2015  08 39  -21.5773 18613.9 -13770.0 -36.4929 23153.6
 20 09 2015  08 40  -21.5753 18613.3 -13770.2 -36.4941 23153.2
 20 09 2015  08 41  -21.5732 18612.7 -13770.3 -36.4953 23152.8
 20 09 2015  08 42  -21.5724 18612.0 -13770.5 -36.4966 23152.4
 20 09 2015  08 43  -21.5710 18611.7 -13770.6 -36.4973 23152.2
 20 09 2015  08 44  -21.5677 18611.2 -13770.7 -36.4983 23151.9
 20 09 2015  08 45  -21.5645 18610.2 -13771.0 -36.5003 23151.3
 20 09 2015  08 46  -21.5607 18609.6 -13771.4 -36.5019 23151.0
 20 09 2015  08 47  -21.5583 18609.3 -13771.7 -36.5029 23150.9
 20 09 2015  08 48  -21.5579 18609.3 -13771.9 -36.5034 23151.0
 20 09 2015  08 49  -21.5577 18609.7 -13771.9 -36.5029 23151.4
 20 09 2015  08 50  -21.5561 18609.7 -13772.0 -36.5030 23151.5
 20 09 2015  08 51  -21.5541 18609.4 -13772.0 -36.5035 23151.2
 20 09 2015  08 52  -21.5510 18608.8 -13772.1 -36.5045 23150.8
 20 09 2015  08 53  -21.5482 18608.3 -13772.3 -36.5057 23150.5
 20 09 2015  08 54  -21.5484 18607.6 -13772.5 -36.5070 23150.0
 20 09 2015  08 55  -21.5504 18606.8 -13772.5 -36.5084 23149.4
 20 09 2015  08 56  -21.5507 18606.3 -13772.6 -36.5092 23149.1
 20 09 2015  08 57  -21.5503 18605.9 -13772.6 -36.5099 23148.7
 20 09 2015  08 58  -21.5497 18605.6 -13772.6 -36.5102 23148.5
 20 09 2015  08 59  -21.5505 18604.7 -13772.6 -36.5117 23147.8
 20 09 2015  09 00  -21.5519 18604.0 -13772.7 -36.5128 23147.3
 20 09 2015  09 01  -21.5535 18603.5 -13772.8 -36.5136 23146.9
 20 09 2015  09 02  -21.5532 18603.3 -13772.7 -36.5140 23146.7
 20 09 2015  09 03  -21.5532 18603.0 -13772.8 -36.5144 23146.5
 20 09 2015  09 04  -21.5539 18602.4 -13772.9 -36.5156 23146.1
 20 09 2015  09 05  -21.5548 18601.8 -13772.9 -36.5165 23145.6
 20 09 2015  09 06  -21.5517 18601.4 -13773.2 -36.5175 23145.5
 20 09 2015  09 07  -21.5481 18601.5 -13773.3 -36.5177 23145.6
 20 09 2015  09 08  -21.5448 18600.9 -13773.5 -36.5189 23145.3
 20 09 2015  09 09  -21.5436 18600.3 -13773.8 -36.5204 23144.9
 20 09 2015  09 10  -21.5430 18600.4 -13774.0 -36.5206 23145.2
 20 09 2015  09 11  -21.5433 18600.2 -13774.1 -36.5212 23145.0
 20 09 2015  09 12  -21.5432 18600.3 -13774.3 -36.5216 23145.2
 20 09 2015  09 13  -21.5409 18600.6 -13774.4 -36.5211 23145.6
 20 09 2015  09 14  -21.5385 18600.5 -13774.6 -36.5217 23145.6
 20 09 2015  09 15  -21.5377 18600.3 -13774.8 -36.5224 23145.6
 20 09 2015  09 16  -21.5346 18600.5 -13775.1 -36.5227 23145.8
 20 09 2015  09 17  -21.5309 18601.3 -13775.2 -36.5218 23146.6
 20 09 2015  09 18  -21.5300 18601.3 -13775.3 -36.5220 23146.6
 20 09 2015  09 19  -21.5307 18601.6 -13775.5 -36.5218 23147.0
 20 09 2015  09 20  -21.5289 18601.5 -13775.7 -36.5225 23147.0
 20 09 2015  09 21  -21.5279 18602.0 -13775.8 -36.5220 23147.5
 20 09 2015  09 22  -21.5250 18602.8 -13775.9 -36.5208 23148.2
 20 09 2015  09 23  -21.5230 18602.0 -13776.1 -36.5224 23147.7
 20 09 2015  09 24  -21.5197 18600.4 -13776.6 -36.5258 23146.7
 20 09 2015  09 25  -21.5229 18600.4 -13776.9 -36.5264 23146.9
 20 09 2015  09 26  -21.5281 18601.0 -13776.9 -36.5256 23147.4
 20 09 2015  09 27  -21.5328 18600.9 -13776.9 -36.5257 23147.3
 20 09 2015  09 28  -21.5303 18601.6 -13776.9 -36.5247 23147.9
 20 09 2015  09 29  -21.5233 18601.0 -13777.2 -36.5260 23147.5
 20 09 2015  09 30  -21.5205 18600.3 -13777.5 -36.5277 23147.1
 20 09 2015  09 31  -21.5199 18599.9 -13777.7 -36.5288 23146.9
 20 09 2015  09 32  -21.5198 18599.6 -13777.9 -36.5296 23146.8
 20 09 2015  09 33  -21.5211 18598.0 -13778.1 -36.5324 23145.7
 20 09 2015  09 34  -21.5227 18597.1 -13778.4 -36.5344 23145.1
 20 09 2015  09 35  -21.5260 18597.1 -13778.5 -36.5346 23145.2
 20 09 2015  09 36  -21.5284 18597.0 -13778.4 -36.5346 23145.0
 20 09 2015  09 37  -21.5298 18596.8 -13778.5 -36.5349 23144.9
 20 09 2015  09 38  -21.5317 18596.3 -13778.5 -36.5356 23144.6
 20 09 2015  09 39  -21.5335 18596.2 -13778.6 -36.5360 23144.5
 20 09 2015  09 40  -21.5359 18595.9 -13778.6 -36.5364 23144.3
 20 09 2015  09 41  -21.5381 18595.8 -13778.7 -36.5367 23144.3
 20 09 2015  09 42  -21.5384 18596.1 -13778.7 -36.5362 23144.5
 20 09 2015  09 44  -21.5384 18596.2 -13778.7 -36.5363 23144.6
 20 09 2015  09 45  -21.5404 18596.2 -13778.8 -36.5364 23144.6
 20 09 2015  09 46  -21.5413 18596.0 -13778.7 -36.5365 23144.4
 20 09 2015  09 47  -21.5407 18595.7 -13778.8 -36.5373 23144.2
 20 09 2015  09 48  -21.5395 18595.7 -13779.0 -36.5375 23144.4
 20 09 2015  09 49  -21.5379 18595.0 -13779.2 -36.5389 23143.9
 20 09 2015  09 50  -21.5358 18594.5 -13779.5 -36.5402 23143.7
 20 09 2015  09 51  -21.5344 18594.3 -13779.7 -36.5410 23143.7
 20 09 2015  09 52  -21.5377 18594.5 -13779.7 -36.5407 23143.8
 20 09 2015  09 53  -21.5417 18595.1 -13779.5 -36.5394 23144.2
 20 09 2015  09 54  -21.5417 18596.9 -13779.3 -36.5364 23145.4
 20 09 2015  09 55  -21.5421 18597.9 -13779.0 -36.5343 23146.1
 20 09 2015  09 56  -21.5389 18597.9 -13779.0 -36.5342 23146.1
 20 09 2015  09 57  -21.5342 18597.4 -13779.1 -36.5352 23145.8
 20 09 2015  09 58  -21.5340 18596.5 -13779.4 -36.5372 23145.2
 20 09 2015  09 59  -21.5369 18596.3 -13779.5 -36.5377 23145.1
 20 09 2015  10 00  -21.5382 18596.9 -13779.5 -36.5369 23145.6
 20 09 2015  10 01  -21.5382 18597.6 -13779.4 -36.5357 23146.1
 20 09 2015  10 02  -21.5394 18597.8 -13779.3 -36.5351 23146.2
 20 09 2015  10 03  -21.5426 18597.0 -13779.2 -36.5359 23145.5
 20 09 2015  10 04  -21.5465 18597.2 -13779.0 -36.5354 23145.5
 20 09 2015  10 05  -21.5477 18597.6 -13778.8 -36.5343 23145.8
 20 09 2015  10 06  -21.5465 18597.5 -13778.7 -36.5344 23145.6
 20 09 2015  10 07  -21.5447 18598.0 -13778.8 -36.5336 23146.1
 20 09 2015  10 08  -21.5438 18598.4 -13778.7 -36.5329 23146.4
 20 09 2015  10 09  -21.5431 18598.4 -13778.7 -36.5330 23146.3
 20 09 2015  10 10  -21.5429 18598.6 -13778.6 -36.5326 23146.5
 20 09 2015  10 11  -21.5437 18599.5 -13778.4 -36.5308 23147.1
 20 09 2015  10 12  -21.5463 18599.1 -13778.3 -36.5312 23146.7
 20 09 2015  10 13  -21.5479 18599.0 -13778.3 -36.5312 23146.6
 20 09 2015  10 14  -21.5478 18598.9 -13778.3 -36.5314 23146.5
 20 09 2015  10 15  -21.5482 18598.3 -13778.5 -36.5327 23146.1
 20 09 2015  10 16  -21.5490 18598.6 -13778.5 -36.5324 23146.4
 20 09 2015  10 17  -21.5490 18599.0 -13778.5 -36.5317 23146.7
 20 09 2015  10 18  -21.5494 18599.1 -13778.6 -36.5316 23146.9
 20 09 2015  10 19  -21.5462 18599.7 -13778.7 -36.5310 23147.3
 20 09 2015  10 20  -21.5434 18599.6 -13778.8 -36.5313 23147.4
 20 09 2015  10 21  -21.5436 18600.5 -13778.8 -36.5300 23148.1
 20 09 2015  10 22  -21.5456 18601.3 -13778.6 -36.5285 23148.6
 20 09 2015  10 23  -21.5482 18601.4 -13778.4 -36.5280 23148.6
 20 09 2015  10 24  -21.5484 18601.7 -13778.4 -36.5274 23148.8
 20 09 2015  10 25  -21.5498 18601.7 -13778.2 -36.5270 23148.7
 20 09 2015  10 26  -21.5498 18600.7 -13778.3 -36.5287 23147.9
 20 09 2015  10 27  -21.5479 18599.4 -13778.5 -36.5311 23147.0
 20 09 2015  10 28  -21.5489 18599.3 -13778.6 -36.5316 23147.0
 20 09 2015  10 29  -21.5508 18599.3 -13778.6 -36.5316 23147.0
 20 09 2015  10 30  -21.5524 18599.3 -13778.5 -36.5312 23147.0
 20 09 2015  10 31  -21.5549 18599.5 -13778.3 -36.5306 23147.0
 20 09 2015  10 32  -21.5575 18600.1 -13778.1 -36.5292 23147.3
 20 09 2015  10 33  -21.5590 18600.2 -13777.8 -36.5286 23147.2
 20 09 2015  10 34  -21.5629 18600.1 -13777.6 -36.5281 23147.0
 20 09 2015  10 35  -21.5638 18599.9 -13777.4 -36.5282 23146.7
 20 09 2015  10 36  -21.5644 18599.3 -13777.4 -36.5292 23146.3
 20 09 2015  10 37  -21.5674 18599.0 -13777.4 -36.5295 23146.1
 20 09 2015  10 38  -21.5701 18599.0 -13777.3 -36.5293 23146.0
 20 09 2015  10 39  -21.5700 18599.3 -13777.2 -36.5287 23146.2
 20 09 2015  10 40  -21.5688 18598.8 -13777.2 -36.5294 23145.8
 20 09 2015  10 41  -21.5671 18598.2 -13777.4 -36.5307 23145.4
 20 09 2015  10 42  -21.5668 18597.5 -13777.6 -36.5323 23145.0
 20 09 2015  10 43  -21.5643 18596.8 -13778.0 -36.5339 23144.7
 20 09 2015  10 44  -21.5646 18597.0 -13778.2 -36.5341 23144.9
 20 09 2015  10 45  -21.5669 18597.0 -13778.2 -36.5341 23144.9
 20 09 2015  10 46  -21.5674 18596.7 -13778.3 -36.5346 23144.7
 20 09 2015  10 47  -21.5678 18596.4 -13778.4 -36.5353 23144.5
 20 09 2015  10 48  -21.5691 18596.1 -13778.4 -36.5359 23144.3
 20 09 2015  10 49  -21.5720 18596.3 -13778.4 -36.5355 23144.4
 20 09 2015  10 50  -21.5733 18596.4 -13778.2 -36.5350 23144.5
 20 09 2015  10 51  -21.5736 18596.7 -13778.1 -36.5342 23144.6
 20 09 2015  10 52  -21.5765 18597.4 -13777.8 -36.5327 23145.0
 20 09 2015  10 53  -21.5791 18598.0 -13777.5 -36.5311 23145.3
 20 09 2015  10 54  -21.5816 18598.7 -13777.2 -36.5295 23145.6
 20 09 2015  10 55  -21.5856 18599.2 -13776.7 -36.5278 23145.8
 20 09 2015  10 56  -21.5877 18599.1 -13776.3 -36.5271 23145.5
 20 09 2015  10 57  -21.5888 18598.4 -13776.2 -36.5279 23144.8
 20 09 2015  10 58  -21.5910 18597.1 -13776.2 -36.5299 23143.8
 20 09 2015  10 59  -21.5937 18596.0 -13776.3 -36.5318 23143.0
 20 09 2015  11 00  -21.5960 18595.2 -13776.5 -36.5332 23142.5
 20 09 2015  11 01  -21.5981 18594.9 -13776.6 -36.5341 23142.3
 20 09 2015  11 02  -21.5991 18594.7 -13776.7 -36.5345 23142.2
 20 09 2015  11 03  -21.5995 18594.0 -13776.9 -36.5358 23141.8
 20 09 2015  11 04  -21.6010 18593.6 -13777.0 -36.5368 23141.5
 20 09 2015  11 05  -21.6032 18593.3 -13777.1 -36.5374 23141.3
 20 09 2015  11 06  -21.6034 18593.0 -13777.2 -36.5380 23141.1
 20 09 2015  11 07  -21.6034 18592.4 -13777.4 -36.5391 23140.7
 20 09 2015  11 08  -21.6050 18591.8 -13777.5 -36.5403 23140.3
 20 09 2015  11 09  -21.6067 18591.2 -13777.7 -36.5416 23140.0
 20 09 2015  11 10  -21.6083 18591.2 -13777.8 -36.5419 23140.0
 20 09 2015  11 11  -21.6106 18591.6 -13777.7 -36.5410 23140.3
 20 09 2015  11 12  -21.6115 18592.2 -13777.5 -36.5396 23140.7
 20 09 2015  11 13  -21.6098 18593.7 -13777.2 -36.5370 23141.7
 20 09 2015  11 14  -21.6108 18594.0 -13777.0 -36.5360 23141.8
 20 09 2015  11 15  -21.6137 18594.5 -13776.6 -36.5346 23142.0
 20 09 2015  11 16  -21.6152 18593.0 -13776.7 -36.5369 23140.8
 20 09 2015  11 17  -21.6155 18592.1 -13776.7 -36.5383 23140.1
 20 09 2015  11 18  -21.6135 18593.6 -13776.7 -36.5360 23141.3
 20 09 2015  11 19  -21.6133 18594.8 -13776.3 -36.5336 23142.0
 20 09 2015  11 20  -21.6139 18594.4 -13776.1 -36.5337 23141.6
 20 09 2015  11 21  -21.6155 18594.3 -13775.9 -36.5336 23141.4
 20 09 2015  11 22  -21.6165 18594.8 -13775.7 -36.5323 23141.7
 20 09 2015  11 23  -21.6166 18596.1 -13775.4 -36.5298 23142.5
 20 09 2015  11 24  -21.6152 18597.1 -13775.0 -36.5275 23143.1
 20 09 2015  11 25  -21.6140 18597.4 -13774.7 -36.5266 23143.1
 20 09 2015  11 26  -21.6146 18597.0 -13774.6 -36.5270 23142.7
 20 09 2015  11 27  -21.6169 18596.4 -13774.6 -36.5278 23142.3
 20 09 2015  11 28  -21.6188 18596.6 -13774.4 -36.5271 23142.4
 20 09 2015  11 29  -21.6186 18596.9 -13774.4 -36.5266 23142.5
 20 09 2015  11 30  -21.6187 18597.8 -13774.2 -36.5249 23143.1
 20 09 2015  11 31  -21.6205 18598.1 -13773.9 -36.5238 23143.3
 20 09 2015  11 32  -21.6241 18598.3 -13773.7 -36.5232 23143.2
 20 09 2015  11 33  -21.6237 18598.3 -13773.5 -36.5227 23143.2
 20 09 2015  11 34  -21.6210 18598.9 -13773.4 -36.5217 23143.6
 20 09 2015  11 35  -21.6194 18599.4 -13773.4 -36.5209 23143.9
 20 09 2015  11 36  -21.6190 18599.9 -13773.2 -36.5198 23144.2
 20 09 2015  11 37  -21.6202 18599.9 -13773.0 -36.5194 23144.2
 20 09 2015  11 38  -21.6207 18599.2 -13773.0 -36.5204 23143.6
 20 09 2015  11 39  -21.6204 18598.6 -13773.1 -36.5215 23143.1
 20 09 2015  11 40  -21.6211 18598.3 -13773.1 -36.5219 23142.9
 20 09 2015  11 41  -21.6197 18598.0 -13773.1 -36.5224 23142.7
 20 09 2015  11 42  -21.6200 18597.8 -13773.2 -36.5229 23142.5
 20 09 2015  11 43  -21.6210 18598.1 -13773.1 -36.5222 23142.8
 20 09 2015  11 44  -21.6220 18598.5 -13772.9 -36.5213 23143.0
 20 09 2015  11 45  -21.6225 18598.7 -13772.7 -36.5207 23143.0
 20 09 2015  11 46  -21.6229 18599.0 -13772.5 -36.5199 23143.1
 20 09 2015  11 47  -21.6242 18598.6 -13772.4 -36.5201 23142.7
 20 09 2015  11 48  -21.6283 18597.8 -13772.2 -36.5209 23142.0
 20 09 2015  11 49  -21.6313 18597.6 -13772.1 -36.5209 23141.8
 20 09 2015  11 50  -21.6307 18597.9 -13771.9 -36.5202 23141.9
 20 09 2015  11 51  -21.6296 18597.8 -13771.8 -36.5201 23141.8
 20 09 2015  11 52  -21.6289 18597.1 -13771.8 -36.5212 23141.2
 20 09 2015  11 53  -21.6314 18596.9 -13771.8 -36.5215 23141.0
 20 09 2015  11 54  -21.6335 18597.2 -13771.6 -36.5206 23141.2
 20 09 2015  11 55  -21.6342 18597.7 -13771.4 -36.5194 23141.4
 20 09 2015  11 56  -21.6345 18598.4 -13771.1 -36.5180 23141.8
 20 09 2015  11 57  -21.6336 18598.8 -13771.0 -36.5170 23142.1
 20 09 2015  11 58  -21.6335 18598.4 -13770.8 -36.5172 23141.7
 20 09 2015  11 59  -21.6359 18596.7 -13770.9 -36.5199 23140.3
 20 09 2015  12 00  -21.6385 18595.9 -13770.9 -36.5212 23139.7
 20 09 2015  12 01  -21.6402 18596.2 -13770.8 -36.5205 23139.9
 20 09 2015  12 02  -21.6418 18596.4 -13770.7 -36.5200 23139.9
 20 09 2015  12 03  -21.6441 18595.6 -13770.5 -36.5208 23139.2
 20 09 2015  12 04  -21.6452 18594.9 -13770.5 -36.5218 23138.7
 20 09 2015  12 05  -21.6456 18594.8 -13770.5 -36.5220 23138.6
 20 09 2015  12 06  -21.6460 18594.9 -13770.4 -36.5217 23138.6
 20 09 2015  12 07  -21.6469 18594.8 -13770.3 -36.5216 23138.4
 20 09 2015  12 08  -21.6485 18593.8 -13770.2 -36.5227 23137.6
 20 09 2015  12 09  -21.6495 18593.3 -13770.2 -36.5235 23137.2
 20 09 2015  12 10  -21.6506 18593.2 -13770.2 -36.5236 23137.1
 20 09 2015  12 11  -21.6523 18592.5 -13770.1 -36.5247 23136.5
 20 09 2015  12 12  -21.6530 18592.0 -13770.1 -36.5253 23136.1
 20 09 2015  12 13  -21.6536 18591.5 -13770.1 -36.5261 23135.7
 20 09 2015  12 14  -21.6545 18590.9 -13770.1 -36.5269 23135.2
 20 09 2015  12 15  -21.6552 18590.5 -13770.1 -36.5275 23134.9
 20 09 2015  12 16  -21.6546 18590.3 -13770.1 -36.5278 23134.7
 20 09 2015  12 17  -21.6523 18590.8 -13770.1 -36.5271 23135.1
 20 09 2015  12 18  -21.6499 18591.5 -13770.0 -36.5258 23135.6
 20 09 2015  12 19  -21.6470 18592.8 -13769.9 -36.5236 23136.6
 20 09 2015  12 20  -21.6456 18593.0 -13769.7 -36.5230 23136.7
 20 09 2015  12 21  -21.6437 18593.7 -13769.5 -36.5216 23137.1
 20 09 2015  12 22  -21.6411 18594.5 -13769.3 -36.5202 23137.6
 20 09 2015  12 23  -21.6369 18595.4 -13769.2 -36.5186 23138.3
 20 09 2015  12 24  -21.6329 18596.8 -13769.1 -36.5162 23139.4
 20 09 2015  12 25  -21.6306 18598.1 -13768.8 -36.5138 23140.2
 20 09 2015  12 26  -21.6281 18599.0 -13768.6 -36.5120 23140.8
 20 09 2015  12 27  -21.6253 18600.7 -13768.4 -36.5092 23142.1
 20 09 2015  12 28  -21.6211 18602.8 -13768.1 -36.5054 23143.6
 20 09 2015  12 29  -21.6168 18604.4 -13767.8 -36.5025 23144.7
 20 09 2015  12 30  -21.6145 18605.7 -13767.5 -36.5000 23145.5
 20 09 2015  12 31  -21.6117 18606.3 -13767.3 -36.4987 23145.9
 20 09 2015  12 32  -21.6110 18606.5 -13767.1 -36.4979 23145.9
 20 09 2015  12 33  -21.6074 18608.1 -13767.0 -36.4953 23147.2
 20 09 2015  12 34  -21.6064 18609.2 -13766.7 -36.4931 23147.8
 20 09 2015  12 35  -21.6084 18608.9 -13766.5 -36.4932 23147.5
 20 09 2015  12 36  -21.6099 18608.8 -13766.3 -36.4930 23147.4
 20 09 2015  12 37  -21.6077 18610.1 -13766.2 -36.4909 23148.3
 20 09 2015  12 38  -21.6062 18610.4 -13765.9 -36.4899 23148.4
 20 09 2015  12 39  -21.6069 18609.7 -13765.8 -36.4906 23147.7
 20 09 2015  12 40  -21.6115 18608.4 -13765.6 -36.4922 23146.6
 20 09 2015  12 41  -21.6143 18607.9 -13765.5 -36.4928 23146.2
 20 09 2015  12 42  -21.6148 18607.3 -13765.5 -36.4936 23145.6
 20 09 2015  12 43  -21.6166 18606.5 -13765.5 -36.4948 23145.0
 20 09 2015  12 44  -21.6198 18605.5 -13765.4 -36.4961 23144.2
 20 09 2015  12 45  -21.6206 18605.6 -13765.4 -36.4959 23144.2
 20 09 2015  12 46  -21.6189 18606.1 -13765.3 -36.4949 23144.5
 20 09 2015  12 47  -21.6204 18606.3 -13765.0 -36.4942 23144.5
 20 09 2015  12 48  -21.6218 18606.3 -13764.8 -36.4937 23144.4
 20 09 2015  12 49  -21.6240 18606.6 -13764.5 -36.4926 23144.5
 20 09 2015  12 50  -21.6259 18606.5 -13764.2 -36.4922 23144.3
 20 09 2015  12 51  -21.6270 18606.5 -13764.1 -36.4919 23144.1
 20 09 2015  12 52  -21.6275 18606.6 -13763.9 -36.4914 23144.2
 20 09 2015  12 53  -21.6280 18607.1 -13763.7 -36.4902 23144.4
 20 09 2015  12 54  -21.6265 18608.0 -13763.5 -36.4886 23145.0
 20 09 2015  12 55  -21.6259 18608.1 -13763.3 -36.4879 23145.0
 20 09 2015  12 56  -21.6303 18606.7 -13763.1 -36.4898 23143.7
 20 09 2015  12 57  -21.6327 18606.2 -13763.1 -36.4903 23143.3
 20 09 2015  12 58  -21.6330 18606.3 -13763.0 -36.4899 23143.3
 20 09 2015  12 59  -21.6322 18607.1 -13762.7 -36.4884 23143.8
 20 09 2015  13 00  -21.6311 18608.3 -13762.4 -36.4860 23144.6
 20 09 2015  13 01  -21.6297 18609.3 -13762.0 -36.4837 23145.2
 20 09 2015  13 02  -21.6279 18609.9 -13761.7 -36.4822 23145.5
 20 09 2015  13 03  -21.6274 18610.1 -13761.5 -36.4815 23145.5
 20 09 2015  13 04  -21.6273 18610.1 -13761.4 -36.4812 23145.4
 20 09 2015  13 05  -21.6259 18611.2 -13761.3 -36.4794 23146.3
 20 09 2015  13 06  -21.6264 18610.6 -13761.0 -36.4797 23145.6
 20 09 2015  13 07  -21.6311 18608.8 -13761.0 -36.4824 23144.1
 20 09 2015  13 08  -21.6322 18608.3 -13761.0 -36.4831 23143.7
 20 09 2015  13 09  -21.6316 18608.5 -13760.9 -36.4826 23143.9
 20 09 2015  13 10  -21.6292 18610.3 -13760.8 -36.4798 23145.2
 20 09 2015  13 11  -21.6299 18609.3 -13760.6 -36.4810 23144.3
 20 09 2015  13 12  -21.6320 18609.1 -13760.6 -36.4811 23144.2
 20 09 2015  13 13  -21.6346 18608.4 -13760.6 -36.4821 23143.6
 20 09 2015  13 14  -21.6372 18607.8 -13760.5 -36.4829 23143.1
 20 09 2015  13 15  -21.6388 18608.3 -13760.4 -36.4819 23143.4
 20 09 2015  13 16  -21.6405 18607.5 -13760.2 -36.4828 23142.6
 20 09 2015  13 17  -21.6405 18606.4 -13760.3 -36.4846 23141.8
 20 09 2015  13 18  -21.6384 18606.7 -13760.4 -36.4843 23142.1
 20 09 2015  13 19  -21.6374 18607.3 -13760.3 -36.4831 23142.5
 20 09 2015  13 20  -21.6369 18607.1 -13760.2 -36.4832 23142.3
 20 09 2015  13 21  -21.6348 18607.0 -13760.2 -36.4836 23142.2
 20 09 2015  13 22  -21.6308 18608.4 -13760.2 -36.4814 23143.4
 20 09 2015  13 23  -21.6275 18610.0 -13760.0 -36.4788 23144.5
 20 09 2015  13 24  -21.6254 18610.9 -13759.9 -36.4771 23145.2
 20 09 2015  13 25  -21.6244 18611.9 -13759.7 -36.4752 23145.9
 20 09 2015  13 26  -21.6237 18612.8 -13759.4 -36.4734 23146.4
 20 09 2015  13 27  -21.6236 18612.4 -13759.3 -36.4736 23146.0
 20 09 2015  13 28  -21.6241 18612.0 -13759.1 -36.4740 23145.6
 20 09 2015  13 29  -21.6265 18611.7 -13759.0 -36.4742 23145.3
 20 09 2015  13 30  -21.6258 18613.5 -13758.9 -36.4713 23146.6
 20 09 2015  13 31  -21.6220 18615.1 -13758.6 -36.4683 23147.8
 20 09 2015  13 32  -21.6199 18615.3 -13758.4 -36.4676 23147.8
 20 09 2015  13 33  -21.6179 18615.9 -13758.2 -36.4664 23148.2
 20 09 2015  13 34  -21.6166 18616.1 -13758.1 -36.4659 23148.3
 20 09 2015  13 35  -21.6201 18614.3 -13758.1 -36.4685 23146.8
 20 09 2015  13 36  -21.6230 18614.6 -13758.0 -36.4679 23147.0
 20 09 2015  13 37  -21.6205 18616.5 -13757.8 -36.4648 23148.5
 20 09 2015  13 38  -21.6179 18617.3 -13757.5 -36.4629 23149.0
 20 09 2015  13 39  -21.6168 18617.1 -13757.3 -36.4629 23148.6
 20 09 2015  13 40  -21.6174 18615.3 -13757.3 -36.4656 23147.2
 20 09 2015  13 41  -21.6208 18614.6 -13757.3 -36.4665 23146.7
 20 09 2015  13 42  -21.6230 18616.0 -13757.1 -36.4641 23147.7
 20 09 2015  13 43  -21.6239 18617.5 -13756.6 -36.4608 23148.6
 20 09 2015  13 44  -21.6217 18618.9 -13756.1 -36.4578 23149.4
 20 09 2015  13 45  -21.6176 18619.5 -13755.7 -36.4562 23149.6
 20 09 2015  13 46  -21.6155 18619.4 -13755.6 -36.4560 23149.5
 20 09 2015  13 47  -21.6122 18620.4 -13755.4 -36.4543 23150.2
 20 09 2015  13 48  -21.6091 18621.3 -13755.4 -36.4529 23150.9
 20 09 2015  13 49  -21.6065 18622.7 -13755.2 -36.4504 23151.9
 20 09 2015  13 50  -21.6050 18624.0 -13754.9 -36.4480 23152.8
 20 09 2015  13 51  -21.6039 18624.7 -13754.7 -36.4465 23153.2
 20 09 2015  13 52  -21.6006 18625.8 -13754.6 -36.4448 23154.0
 20 09 2015  13 53  -21.5972 18626.1 -13754.6 -36.4441 23154.3
 20 09 2015  13 54  -21.5965 18625.6 -13754.6 -36.4449 23153.8
 20 09 2015  13 55  -21.5961 18625.3 -13754.6 -36.4454 23153.6
 20 09 2015  13 56  -21.5945 18625.3 -13754.6 -36.4454 23153.6
 20 09 2015  13 57  -21.5931 18625.3 -13754.6 -36.4453 23153.6
 20 09 2015  13 58  -21.5929 18625.5 -13754.5 -36.4449 23153.7
 20 09 2015  13 59  -21.5920 18625.8 -13754.3 -36.4441 23153.9
 20 09 2015  14 00  -21.5908 18626.0 -13754.1 -36.4435 23153.9
 20 09 2015  14 01  -21.5917 18625.7 -13753.9 -36.4434 23153.5
 20 09 2015  14 02  -21.5923 18625.4 -13753.7 -36.4436 23153.2
 20 09 2015  14 03  -21.5936 18624.9 -13753.6 -36.4440 23152.7
 20 09 2015  14 04  -21.5969 18624.3 -13753.4 -36.4445 23152.2
 20 09 2015  14 05  -21.6001 18624.0 -13753.2 -36.4445 23151.8
 20 09 2015  14 06  -21.6016 18624.2 -13753.0 -36.4438 23151.8
 20 09 2015  14 07  -21.6007 18624.3 -13752.8 -36.4432 23151.8
 20 09 2015  14 08  -21.6028 18624.0 -13752.6 -36.4433 23151.4
 20 09 2015  14 09  -21.6046 18624.2 -13752.4 -36.4426 23151.4
 20 09 2015  14 10  -21.6050 18623.8 -13752.1 -36.4427 23151.0
 20 09 2015  14 11  -21.6061 18623.4 -13751.9 -36.4428 23150.5
 20 09 2015  14 12  -21.6086 18622.9 -13751.7 -36.4432 23150.0
 20 09 2015  14 13  -21.6106 18622.7 -13751.5 -36.4430 23149.7
 20 09 2015  14 14  -21.6104 18623.3 -13751.2 -36.4416 23150.0
 20 09 2015  14 15  -21.6101 18623.5 -13750.9 -36.4407 23150.0
 20 09 2015  14 16  -21.6103 18623.1 -13750.7 -36.4409 23149.5
 20 09 2015  14 17  -21.6089 18623.1 -13750.5 -36.4405 23149.4
 20 09 2015  14 18  -21.6073 18623.2 -13750.4 -36.4401 23149.4
 20 09 2015  14 19  -21.6059 18623.5 -13750.2 -36.4394 23149.5
 20 09 2015  14 20  -21.6047 18623.5 -13750.0 -36.4390 23149.4
 20 09 2015  14 21  -21.6037 18624.4 -13749.7 -36.4370 23150.1
 20 09 2015  14 22  -21.6017 18625.3 -13749.5 -36.4352 23150.6
 20 09 2015  14 23  -21.5994 18626.1 -13749.3 -36.4335 23151.1
 20 09 2015  14 24  -21.5980 18626.7 -13749.0 -36.4323 23151.5
 20 09 2015  14 25  -21.5992 18626.8 -13748.7 -36.4314 23151.4
 20 09 2015  14 26  -21.5975 18627.1 -13748.5 -36.4305 23151.5
 20 09 2015  14 27  -21.5955 18627.0 -13748.3 -36.4302 23151.3
 20 09 2015  14 28  -21.5957 18627.2 -13748.1 -36.4296 23151.3
 20 09 2015  14 29  -21.5978 18626.3 -13747.8 -36.4305 23150.4
 20 09 2015  14 30  -21.5979 18625.5 -13747.8 -36.4316 23149.8
 20 09 2015  14 31  -21.5975 18625.4 -13747.7 -36.4316 23149.6
 20 09 2015  14 32  -21.5974 18625.1 -13747.5 -36.4315 23149.3
 20 09 2015  14 33  -21.5966 18625.3 -13747.3 -36.4310 23149.3
 20 09 2015  14 34  -21.5965 18625.2 -13747.1 -36.4306 23149.2
 20 09 2015  14 35  -21.5977 18625.0 -13747.0 -36.4307 23148.9
 20 09 2015  14 36  -21.5975 18624.8 -13746.9 -36.4309 23148.6
 20 09 2015  14 37  -21.5971 18624.1 -13746.8 -36.4318 23148.0
 20 09 2015  14 38  -21.5963 18623.1 -13746.8 -36.4331 23147.3
 20 09 2015  14 39  -21.5977 18621.7 -13746.8 -36.4352 23146.1
 20 09 2015  14 40  -21.5968 18620.9 -13746.8 -36.4365 23145.5
 20 09 2015  14 41  -21.5946 18620.4 -13746.9 -36.4373 23145.1
 20 09 2015  14 42  -21.5926 18620.4 -13747.0 -36.4374 23145.2
 20 09 2015  14 43  -21.5889 18620.9 -13747.0 -36.4367 23145.6
 20 09 2015  14 44  -21.5892 18620.3 -13746.9 -36.4374 23145.1
 20 09 2015  14 45  -21.5911 18619.2 -13746.8 -36.4390 23144.1
 20 09 2015  14 46  -21.5920 18618.4 -13746.8 -36.4400 23143.5
 20 09 2015  14 47  -21.5904 18618.9 -13746.7 -36.4391 23143.8
 20 09 2015  14 48  -21.5885 18619.9 -13746.5 -36.4372 23144.5
 20 09 2015  14 49  -21.5890 18619.8 -13746.3 -36.4370 23144.2
 20 09 2015  14 50  -21.5914 18618.8 -13746.2 -36.4381 23143.4
 20 09 2015  14 51  -21.5923 18618.6 -13746.1 -36.4384 23143.2
 20 09 2015  14 52  -21.5915 18619.4 -13746.0 -36.4369 23143.8
 20 09 2015  14 53  -21.5901 18620.4 -13745.8 -36.4351 23144.4
 20 09 2015  14 54  -21.5903 18621.0 -13745.5 -36.4336 23144.8
 20 09 2015  14 55  -21.5912 18620.5 -13745.3 -36.4341 23144.3
 20 09 2015  14 56  -21.5904 18620.3 -13745.3 -36.4343 23144.1
 20 09 2015  14 57  -21.5904 18620.5 -13745.2 -36.4338 23144.2
 20 09 2015  14 58  -21.5905 18620.8 -13745.2 -36.4333 23144.4
 20 09 2015  14 59  -21.5887 18620.6 -13745.1 -36.4335 23144.2
 20 09 2015  15 00  -21.5866 18620.6 -13745.1 -36.4334 23144.2
 20 09 2015  15 01  -21.5845 18620.4 -13745.2 -36.4339 23144.1
 20 09 2015  15 02  -21.5854 18619.6 -13745.2 -36.4351 23143.5
 20 09 2015  15 03  -21.5836 18619.7 -13745.3 -36.4352 23143.6
 20 09 2015  15 04  -21.5824 18619.7 -13745.3 -36.4353 23143.6
 20 09 2015  15 05  -21.5815 18619.2 -13745.3 -36.4358 23143.2
 20 09 2015  15 06  -21.5789 18619.3 -13745.3 -36.4357 23143.3
 20 09 2015  15 07  -21.5773 18619.6 -13745.3 -36.4353 23143.6
 20 09 2015  15 08  -21.5756 18620.3 -13745.2 -36.4342 23144.0
 20 09 2015  15 09  -21.5749 18619.9 -13745.2 -36.4345 23143.7
 20 09 2015  15 10  -21.5765 18619.1 -13745.2 -36.4357 23143.1
 20 09 2015  15 11  -21.5797 18618.0 -13745.1 -36.4374 23142.1
 20 09 2015  15 12  -21.5814 18617.5 -13745.1 -36.4381 23141.7
 20 09 2015  15 13  -21.5828 18616.8 -13745.0 -36.4389 23141.1
 20 09 2015  15 14  -21.5830 18616.4 -13744.9 -36.4393 23140.7
 20 09 2015  15 15  -21.5824 18616.4 -13744.8 -36.4391 23140.7
 20 09 2015  15 16  -21.5831 18616.1 -13744.7 -36.4392 23140.4
 20 09 2015  15 17  -21.5845 18615.7 -13744.6 -36.4396 23139.9
 20 09 2015  15 18  -21.5843 18615.4 -13744.5 -36.4399 23139.7
 20 09 2015  15 19  -21.5846 18614.8 -13744.5 -36.4407 23139.2
 20 09 2015  15 20  -21.5838 18614.6 -13744.4 -36.4409 23139.0
 20 09 2015  15 21  -21.5811 18615.1 -13744.4 -36.4402 23139.3
 20 09 2015  15 22  -21.5798 18615.1 -13744.3 -36.4399 23139.3
 20 09 2015  15 23  -21.5795 18614.7 -13744.3 -36.4405 23139.0
 20 09 2015  15 24  -21.5791 18614.0 -13744.3 -36.4415 23138.4
 20 09 2015  15 25  -21.5777 18613.4 -13744.4 -36.4425 23138.0
 20 09 2015  15 26  -21.5774 18613.3 -13744.3 -36.4426 23137.9
 20 09 2015  15 27  -21.5775 18613.0 -13744.3 -36.4429 23137.6
 20 09 2015  15 28  -21.5770 18612.7 -13744.2 -36.4433 23137.4
 20 09 2015  15 29  -21.5753 18613.0 -13744.2 -36.4427 23137.6
 20 09 2015  15 30  -21.5749 18612.8 -13744.1 -36.4429 23137.4
 20 09 2015  15 31  -21.5760 18612.4 -13744.0 -36.4433 23136.9
 20 09 2015  15 32  -21.5757 18612.3 -13744.1 -36.4435 23136.9
 20 09 2015  15 33  -21.5762 18612.0 -13744.0 -36.4439 23136.6
 20 09 2015  15 34  -21.5766 18612.0 -13744.0 -36.4438 23136.6
 20 09 2015  15 35  -21.5745 18612.7 -13744.0 -36.4428 23137.1
 20 09 2015  15 36  -21.5717 18613.5 -13743.9 -36.4414 23137.7
 20 09 2015  15 37  -21.5703 18613.8 -13743.8 -36.4408 23137.9
 20 09 2015  15 38  -21.5689 18614.4 -13743.7 -36.4396 23138.4
 20 09 2015  15 39  -21.5672 18614.9 -13743.6 -36.4388 23138.7
 20 09 2015  15 40  -21.5652 18615.1 -13743.6 -36.4385 23138.9
 20 09 2015  15 41  -21.5636 18615.8 -13743.6 -36.4375 23139.5
 20 09 2015  15 42  -21.5619 18616.5 -13743.6 -36.4364 23140.0
 20 09 2015  15 43  -21.5595 18617.0 -13743.6 -36.4357 23140.4
 20 09 2015  15 44  -21.5572 18617.5 -13743.6 -36.4350 23140.9
 20 09 2015  15 45  -21.5571 18617.4 -13743.6 -36.4352 23140.8
 20 09 2015  15 46  -21.5588 18616.3 -13743.8 -36.4372 23139.9
 20 09 2015  15 47  -21.5596 18615.4 -13744.0 -36.4388 23139.4
 20 09 2015  15 48  -21.5603 18614.8 -13744.1 -36.4400 23139.0
 20 09 2015  15 49  -21.5607 18614.5 -13744.2 -36.4406 23138.8
 20 09 2015  15 50  -21.5623 18613.8 -13744.3 -36.4418 23138.2
 20 09 2015  15 51  -21.5626 18613.3 -13744.4 -36.4427 23137.9
 20 09 2015  15 52  -21.5630 18612.7 -13744.5 -36.4438 23137.5
 20 09 2015  15 53  -21.5654 18612.1 -13744.6 -36.4449 23137.0
 20 09 2015  15 54  -21.5638 18612.2 -13744.6 -36.4448 23137.2
 20 09 2015  15 55  -21.5612 18611.9 -13744.8 -36.4455 23137.0
 20 09 2015  15 56  -21.5598 18611.7 -13744.9 -36.4460 23136.9
 20 09 2015  15 57  -21.5605 18610.9 -13744.9 -36.4473 23136.3
 20 09 2015  15 58  -21.5614 18610.1 -13745.1 -36.4490 23135.8
 20 09 2015  15 59  -21.5605 18610.1 -13745.3 -36.4492 23135.9
 20 09 2015  16 00  -21.5605 18609.8 -13745.4 -36.4498 23135.7
 20 09 2015  16 01  -21.5610 18609.3 -13745.4 -36.4506 23135.3
 20 09 2015  16 02  -21.5616 18608.7 -13745.5 -36.4517 23134.9
 20 09 2015  16 03  -21.5646 18607.5 -13745.6 -36.4537 23134.0
 20 09 2015  16 04  -21.5656 18606.7 -13745.7 -36.4551 23133.4
 20 09 2015  16 05  -21.5645 18606.9 -13745.8 -36.4549 23133.5
 20 09 2015  16 06  -21.5624 18607.4 -13745.7 -36.4541 23133.9
 20 09 2015  16 07  -21.5609 18607.6 -13745.7 -36.4537 23134.1
 20 09 2015  16 08  -21.5608 18607.1 -13745.6 -36.4543 23133.7
 20 09 2015  16 09  -21.5579 18607.8 -13745.8 -36.4536 23134.3
 20 09 2015  16 10  -21.5563 18608.3 -13745.7 -36.4527 23134.7
 20 09 2015  16 11  -21.5561 18608.0 -13745.8 -36.4533 23134.5
 20 09 2015  16 12  -21.5587 18607.4 -13745.9 -36.4544 23134.0
 20 09 2015  16 13  -21.5611 18606.9 -13745.9 -36.4552 23133.6
 20 09 2015  16 14  -21.5621 18606.5 -13746.0 -36.4559 23133.4
 20 09 2015  16 15  -21.5631 18606.1 -13746.0 -36.4566 23133.1
 20 09 2015  16 16  -21.5625 18605.9 -13746.1 -36.4571 23133.0
 20 09 2015  16 17  -21.5621 18605.5 -13746.2 -36.4578 23132.7
 20 09 2015  16 18  -21.5620 18604.3 -13746.3 -36.4598 23131.8
 20 09 2015  16 19  -21.5598 18604.4 -13746.6 -36.4603 23132.1
 20 09 2015  16 20  -21.5604 18603.8 -13746.6 -36.4612 23131.6
 20 09 2015  16 21  -21.5635 18602.2 -13746.7 -36.4636 23130.4
 20 09 2015  16 22  -21.5649 18600.7 -13746.8 -36.4661 23129.2
 20 09 2015  16 23  -21.5655 18600.1 -13746.9 -36.4672 23128.8
 20 09 2015  16 24  -21.5649 18600.1 -13747.0 -36.4675 23128.8
 20 09 2015  16 25  -21.5654 18598.9 -13747.1 -36.4694 23128.0
 20 09 2015  16 26  -21.5644 18598.4 -13747.4 -36.4706 23127.7
 20 09 2015  16 27  -21.5596 18599.1 -13747.7 -36.4703 23128.4
 20 09 2015  16 28  -21.5539 18600.2 -13748.0 -36.4692 23129.6
 20 09 2015  16 29  -21.5489 18601.6 -13748.2 -36.4675 23130.8
 20 09 2015  16 30  -21.5447 18602.4 -13748.4 -36.4667 23131.5
 20 09 2015  16 31  -21.5410 18603.0 -13748.6 -36.4664 23132.1
 20 09 2015  16 32  -21.5393 18603.4 -13748.8 -36.4661 23132.6
 20 09 2015  16 33  -21.5374 18603.3 -13749.0 -36.4667 23132.6
 20 09 2015  16 34  -21.5341 18603.8 -13749.3 -36.4665 23133.2
 20 09 2015  16 35  -21.5288 18605.0 -13749.6 -36.4652 23134.3
 20 09 2015  16 36  -21.5252 18605.6 -13749.8 -36.4649 23135.0
 20 09 2015  16 37  -21.5226 18606.3 -13750.0 -36.4643 23135.6
 20 09 2015  16 38  -21.5198 18607.0 -13750.3 -36.4637 23136.3
 20 09 2015  16 39  -21.5171 18607.9 -13750.5 -36.4629 23137.2
 20 09 2015  16 40  -21.5170 18608.1 -13750.6 -36.4628 23137.4
 20 09 2015  16 41  -21.5152 18608.5 -13750.7 -36.4624 23137.8
 20 09 2015  16 42  -21.5125 18609.0 -13750.9 -36.4620 23138.3
 20 09 2015  16 43  -21.5128 18609.1 -13751.0 -36.4619 23138.5
 20 09 2015  16 44  -21.5137 18608.8 -13751.1 -36.4627 23138.3
 20 09 2015  16 45  -21.5149 18608.6 -13751.2 -36.4633 23138.2
 20 09 2015  16 46  -21.5155 18608.3 -13751.3 -36.4639 23138.0
 20 09 2015  16 47  -21.5148 18608.2 -13751.6 -36.4645 23138.1
 20 09 2015  16 48  -21.5149 18608.3 -13751.7 -36.4647 23138.2
 20 09 2015  16 49  -21.5171 18608.0 -13751.7 -36.4652 23138.0
 20 09 2015  16 50  -21.5199 18607.3 -13751.8 -36.4663 23137.5
 20 09 2015  16 51  -21.5220 18607.1 -13751.9 -36.4667 23137.4
 20 09 2015  16 52  -21.5237 18607.2 -13751.9 -36.4666 23137.5
 20 09 2015  16 53  -21.5272 18606.8 -13751.8 -36.4670 23137.1
 20 09 2015  16 54  -21.5278 18607.0 -13751.7 -36.4666 23137.2
 20 09 2015  16 55  -21.5279 18607.2 -13751.7 -36.4663 23137.3
 20 09 2015  16 56  -21.5255 18607.5 -13751.7 -36.4658 23137.6
 20 09 2015  16 57  -21.5247 18607.9 -13751.8 -36.4653 23138.0
 20 09 2015  16 58  -21.5252 18607.8 -13751.7 -36.4654 23137.9
 20 09 2015  16 59  -21.5259 18607.9 -13751.8 -36.4653 23138.0
 20 09 2015  17 00  -21.5256 18608.4 -13751.7 -36.4645 23138.3
 20 09 2015  17 01  -21.5285 18608.1 -13751.6 -36.4648 23138.0
 20 09 2015  17 02  -21.5310 18607.3 -13751.6 -36.4659 23137.4
 20 09 2015  17 03  -21.5314 18606.7 -13751.8 -36.4671 23137.0
 20 09 2015  17 04  -21.5340 18606.4 -13751.8 -36.4676 23136.8
 20 09 2015  17 05  -21.5358 18606.0 -13751.8 -36.4682 23136.4
 20 09 2015  17 06  -21.5383 18604.7 -13751.9 -36.4703 23135.4
 20 09 2015  17 07  -21.5405 18603.8 -13752.0 -36.4719 23134.8
 20 09 2015  17 08  -21.5430 18603.7 -13752.1 -36.4721 23134.8
 20 09 2015  17 09  -21.5449 18603.6 -13752.0 -36.4722 23134.6
 20 09 2015  17 10  -21.5460 18603.3 -13752.0 -36.4725 23134.4
 20 09 2015  17 11  -21.5476 18603.1 -13752.0 -36.4728 23134.2
 20 09 2015  17 12  -21.5478 18603.3 -13751.9 -36.4725 23134.3
 20 09 2015  17 13  -21.5471 18604.1 -13751.8 -36.4710 23135.0
 20 09 2015  17 14  -21.5490 18604.4 -13751.7 -36.4704 23135.1
 20 09 2015  17 15  -21.5495 18605.8 -13751.6 -36.4682 23136.1
 20 09 2015  17 16  -21.5501 18605.5 -13751.6 -36.4685 23135.9
 20 09 2015  17 17  -21.5532 18603.8 -13751.6 -36.4712 23134.5
 20 09 2015  17 18  -21.5539 18602.9 -13751.9 -36.4730 23134.0
 20 09 2015  17 19  -21.5533 18602.9 -13751.9 -36.4731 23134.0
 20 09 2015  17 20  -21.5516 18603.0 -13752.1 -36.4732 23134.2
 20 09 2015  17 21  -21.5494 18603.5 -13752.2 -36.4726 23134.7
 20 09 2015  17 22  -21.5480 18603.9 -13752.3 -36.4723 23135.0
 20 09 2015  17 23  -21.5477 18603.7 -13752.4 -36.4727 23135.0
 20 09 2015  17 24  -21.5478 18603.5 -13752.5 -36.4734 23134.9
 20 09 2015  17 25  -21.5484 18602.2 -13752.8 -36.4758 23133.9
 20 09 2015  17 26  -21.5471 18601.5 -13753.1 -36.4773 23133.6
 20 09 2015  17 27  -21.5438 18601.9 -13753.3 -36.4774 23134.0
 20 09 2015  17 28  -21.5424 18602.0 -13753.5 -36.4775 23134.2
 20 09 2015  17 29  -21.5420 18602.3 -13753.7 -36.4774 23134.6
 20 09 2015  17 30  -21.5401 18602.4 -13753.8 -36.4774 23134.8
 20 09 2015  17 31  -21.5389 18602.2 -13754.0 -36.4781 23134.7
 20 09 2015  17 32  -21.5399 18601.6 -13754.2 -36.4794 23134.3
 20 09 2015  17 33  -21.5410 18600.9 -13754.4 -36.4809 23133.9
 20 09 2015  17 34  -21.5427 18600.4 -13754.6 -36.4820 23133.6
 20 09 2015  17 35  -21.5425 18600.2 -13754.6 -36.4824 23133.5
 20 09 2015  17 36  -21.5420 18600.1 -13754.7 -36.4828 23133.4
 20 09 2015  17 37  -21.5420 18599.9 -13754.7 -36.4829 23133.3
 20 09 2015  17 38  -21.5424 18599.2 -13754.8 -36.4842 23132.8
 20 09 2015  17 39  -21.5425 18598.8 -13754.9 -36.4851 23132.5
 20 09 2015  17 40  -21.5426 18599.0 -13755.0 -36.4849 23132.7
 20 09 2015  17 41  -21.5421 18599.0 -13755.0 -36.4848 23132.7
 20 09 2015  17 42  -21.5415 18599.0 -13755.0 -36.4849 23132.8
 20 09 2015  17 43  -21.5412 18599.0 -13755.1 -36.4850 23132.8
 20 09 2015  17 44  -21.5413 18598.7 -13755.0 -36.4854 23132.5
 20 09 2015  17 45  -21.5412 18598.6 -13755.1 -36.4858 23132.5
 20 09 2015  17 46  -21.5408 18598.5 -13755.1 -36.4860 23132.4
 20 09 2015  17 47  -21.5404 18598.4 -13755.2 -36.4862 23132.3
 20 09 2015  17 48  -21.5390 18598.5 -13755.3 -36.4862 23132.4
 20 09 2015  17 49  -21.5377 18598.2 -13755.4 -36.4868 23132.3
 20 09 2015  17 50  -21.5380 18597.7 -13755.4 -36.4876 23131.9
 20 09 2015  17 51  -21.5371 18597.6 -13755.4 -36.4879 23131.8
 20 09 2015  17 52  -21.5362 18597.7 -13755.4 -36.4877 23131.9
 20 09 2015  17 53  -21.5350 18597.7 -13755.4 -36.4877 23131.9
 20 09 2015  17 54  -21.5341 18597.7 -13755.4 -36.4877 23131.9
 20 09 2015  17 55  -21.5338 18597.9 -13755.4 -36.4873 23132.1
 20 09 2015  17 56  -21.5323 18598.0 -13755.4 -36.4873 23132.2
 20 09 2015  17 57  -21.5313 18597.8 -13755.5 -36.4877 23132.0
 20 09 2015  17 58  -21.5300 18597.7 -13755.6 -36.4881 23132.0
 20 09 2015  17 59  -21.5293 18597.4 -13755.8 -36.4888 23131.9
 20 09 2015  18 00  -21.5290 18597.4 -13755.9 -36.4890 23131.9
 20 09 2015  18 01  -21.5285 18597.4 -13755.9 -36.4891 23131.9
 20 09 2015  18 02  -21.5272 18597.2 -13756.0 -36.4895 23131.9
 20 09 2015  18 03  -21.5277 18597.2 -13756.0 -36.4896 23131.9
 20 09 2015  18 04  -21.5267 18596.6 -13756.1 -36.4906 23131.5
 20 09 2015  18 05  -21.5266 18596.4 -13756.3 -36.4914 23131.4
 20 09 2015  18 06  -21.5274 18596.3 -13756.4 -36.4917 23131.3
 20 09 2015  18 07  -21.5269 18596.2 -13756.4 -36.4919 23131.3
 20 09 2015  18 08  -21.5267 18596.0 -13756.5 -36.4924 23131.2
 20 09 2015  18 09  -21.5255 18595.6 -13756.6 -36.4932 23130.9
 20 09 2015  18 10  -21.5245 18595.4 -13756.7 -36.4937 23130.9
 20 09 2015  18 11  -21.5239 18595.3 -13756.9 -36.4941 23130.9
 20 09 2015  18 12  -21.5247 18595.0 -13756.9 -36.4946 23130.6
 20 09 2015  18 13  -21.5256 18594.5 -13756.9 -36.4953 23130.2
 20 09 2015  18 14  -21.5257 18594.2 -13757.0 -36.4959 23130.1
 20 09 2015  18 15  -21.5257 18593.7 -13757.1 -36.4969 23129.7
 20 09 2015  18 16  -21.5263 18593.4 -13757.2 -36.4976 23129.5
 20 09 2015  18 17  -21.5274 18592.8 -13757.2 -36.4985 23129.1
 20 09 2015  18 18  -21.5283 18592.6 -13757.3 -36.4990 23129.0
 20 09 2015  18 19  -21.5297 18592.4 -13757.4 -36.4993 23128.9
 20 09 2015  18 20  -21.5305 18592.6 -13757.3 -36.4989 23128.9
 20 09 2015  18 21  -21.5321 18592.8 -13757.2 -36.4985 23129.0
 20 09 2015  18 22  -21.5331 18592.7 -13757.1 -36.4985 23128.9
 20 09 2015  18 23  -21.5332 18592.7 -13757.1 -36.4985 23128.9
 20 09 2015  18 24  -21.5327 18592.9 -13757.1 -36.4980 23129.1
 20 09 2015  18 25  -21.5324 18592.9 -13757.1 -36.4980 23129.1
 20 09 2015  18 26  -21.5330 18592.5 -13757.1 -36.4986 23128.8
 20 09 2015  18 27  -21.5345 18591.9 -13757.1 -36.4996 23128.3
 20 09 2015  18 28  -21.5362 18591.6 -13757.2 -36.5002 23128.1
 20 09 2015  18 29  -21.5375 18591.0 -13757.2 -36.5012 23127.6
 20 09 2015  18 30  -21.5384 18591.0 -13757.3 -36.5012 23127.6
 20 09 2015  18 31  -21.5392 18590.5 -13757.2 -36.5019 23127.2
 20 09 2015  18 32  -21.5400 18590.4 -13757.3 -36.5021 23127.1
 20 09 2015  18 33  -21.5410 18590.1 -13757.3 -36.5025 23126.9
 20 09 2015  18 34  -21.5420 18589.9 -13757.3 -36.5028 23126.8
 20 09 2015  18 35  -21.5428 18589.8 -13757.2 -36.5029 23126.7
 20 09 2015  18 36  -21.5442 18589.7 -13757.3 -36.5031 23126.6
 20 09 2015  18 37  -21.5444 18590.0 -13757.2 -36.5027 23126.8
 20 09 2015  18 38  -21.5452 18589.8 -13757.2 -36.5029 23126.7
 20 09 2015  18 39  -21.5464 18589.6 -13757.2 -36.5032 23126.5
 20 09 2015  18 40  -21.5478 18589.3 -13757.2 -36.5036 23126.3
 20 09 2015  18 41  -21.5477 18589.5 -13757.2 -36.5032 23126.4
 20 09 2015  18 42  -21.5496 18589.6 -13757.0 -36.5027 23126.4
 20 09 2015  18 43  -21.5503 18589.6 -13756.9 -36.5026 23126.3
 20 09 2015  18 44  -21.5496 18589.5 -13756.9 -36.5027 23126.2
 20 09 2015  18 45  -21.5497 18589.7 -13756.9 -36.5024 23126.4
 20 09 2015  18 46  -21.5496 18589.9 -13756.9 -36.5020 23126.5
 20 09 2015  18 47  -21.5489 18590.1 -13756.8 -36.5017 23126.6
 20 09 2015  18 48  -21.5492 18590.2 -13756.8 -36.5015 23126.7
 20 09 2015  18 49  -21.5496 18590.6 -13756.8 -36.5008 23127.0
 20 09 2015  18 50  -21.5505 18590.5 -13756.7 -36.5008 23126.9
 20 09 2015  18 51  -21.5525 18590.4 -13756.6 -36.5007 23126.8
 20 09 2015  18 52  -21.5537 18590.2 -13756.5 -36.5010 23126.5
 20 09 2015  18 53  -21.5549 18589.8 -13756.5 -36.5015 23126.2
 20 09 2015  18 54  -21.5559 18589.7 -13756.3 -36.5012 23126.1
 20 09 2015  18 55  -21.5563 18589.8 -13756.2 -36.5008 23126.1
 20 09 2015  18 56  -21.5566 18589.8 -13756.1 -36.5005 23126.0
 20 09 2015  18 57  -21.5570 18589.7 -13756.0 -36.5006 23125.8
 20 09 2015  18 58  -21.5564 18589.5 -13756.0 -36.5008 23125.7
 20 09 2015  18 59  -21.5552 18589.9 -13755.9 -36.5001 23126.0
 20 09 2015  19 00  -21.5535 18590.9 -13755.8 -36.4983 23126.7
 20 09 2015  19 01  -21.5524 18591.7 -13755.6 -36.4969 23127.2
 20 09 2015  19 02  -21.5519 18592.5 -13755.4 -36.4953 23127.8
 20 09 2015  19 03  -21.5520 18592.6 -13755.3 -36.4950 23127.8
 20 09 2015  19 04  -21.5514 18592.7 -13755.2 -36.4946 23127.8
 20 09 2015  19 05  -21.5511 18592.6 -13755.2 -36.4948 23127.7
 20 09 2015  19 06  -21.5511 18592.7 -13755.2 -36.4946 23127.7
 20 09 2015  19 07  -21.5512 18592.7 -13755.2 -36.4947 23127.7
 20 09 2015  19 08  -21.5512 18592.8 -13755.1 -36.4943 23127.8
 20 09 2015  19 09  -21.5508 18592.8 -13755.0 -36.4940 23127.8
 20 09 2015  19 10  -21.5510 18592.7 -13755.0 -36.4942 23127.7
 20 09 2015  19 11  -21.5522 18592.3 -13755.0 -36.4949 23127.3
 20 09 2015  19 12  -21.5527 18591.7 -13755.1 -36.4959 23126.9
 20 09 2015  19 13  -21.5523 18591.5 -13755.2 -36.4964 23126.8
 20 09 2015  19 14  -21.5518 18591.3 -13755.3 -36.4968 23126.7
 20 09 2015  19 15  -21.5515 18591.1 -13755.4 -36.4973 23126.6
 20 09 2015  19 16  -21.5509 18590.7 -13755.5 -36.4981 23126.3
 20 09 2015  19 17  -21.5505 18590.6 -13755.6 -36.4984 23126.3
 20 09 2015  19 18  -21.5504 18590.3 -13755.6 -36.4990 23126.1
 20 09 2015  19 19  -21.5504 18590.0 -13755.7 -36.4996 23125.9
 20 09 2015  19 20  -21.5500 18589.7 -13755.8 -36.5003 23125.7
 20 09 2015  19 21  -21.5499 18589.5 -13755.9 -36.5007 23125.7
 20 09 2015  19 22  -21.5499 18589.6 -13756.0 -36.5008 23125.8
 20 09 2015  19 23  -21.5499 18589.8 -13756.1 -36.5005 23126.0
 20 09 2015  19 24  -21.5500 18589.9 -13756.1 -36.5004 23126.1
 20 09 2015  19 25  -21.5497 18589.9 -13756.1 -36.5006 23126.0
 20 09 2015  19 26  -21.5488 18590.3 -13756.2 -36.5001 23126.5
 20 09 2015  19 27  -21.5486 18590.5 -13756.2 -36.4999 23126.6
 20 09 2015  19 28  -21.5491 18590.6 -13756.2 -36.4997 23126.7
 20 09 2015  19 29  -21.5493 18590.5 -13756.2 -36.4999 23126.6
 20 09 2015  19 30  -21.5502 18590.3 -13756.3 -36.5002 23126.5
 20 09 2015  19 31  -21.5514 18589.8 -13756.3 -36.5011 23126.1
 20 09 2015  19 32  -21.5520 18589.5 -13756.4 -36.5016 23126.0
 20 09 2015  19 33  -21.5518 18589.6 -13756.4 -36.5016 23126.0
 20 09 2015  19 34  -21.5525 18589.5 -13756.4 -36.5018 23125.9
 20 09 2015  19 35  -21.5533 18589.5 -13756.4 -36.5017 23126.0
 20 09 2015  19 36  -21.5541 18589.4 -13756.4 -36.5019 23125.8
 20 09 2015  19 37  -21.5551 18589.2 -13756.4 -36.5022 23125.6
 20 09 2015  19 38  -21.5561 18589.0 -13756.3 -36.5023 23125.5
 20 09 2015  19 39  -21.5571 18588.9 -13756.3 -36.5023 23125.4
 20 09 2015  19 40  -21.5576 18588.9 -13756.3 -36.5025 23125.3
 20 09 2015  19 41  -21.5582 18588.6 -13756.3 -36.5028 23125.2
 20 09 2015  19 42  -21.5586 18588.7 -13756.3 -36.5026 23125.2
 20 09 2015  19 43  -21.5589 18588.8 -13756.3 -36.5026 23125.3
 20 09 2015  19 44  -21.5591 18588.7 -13756.3 -36.5027 23125.3
 20 09 2015  19 45  -21.5592 18588.7 -13756.3 -36.5027 23125.3
 20 09 2015  19 46  -21.5593 18588.7 -13756.3 -36.5028 23125.2
 20 09 2015  19 47  -21.5593 18588.6 -13756.3 -36.5028 23125.2
 20 09 2015  19 48  -21.5590 18588.8 -13756.4 -36.5026 23125.4
 20 09 2015  19 49  -21.5591 18588.8 -13756.4 -36.5026 23125.4
 20 09 2015  19 50  -21.5591 18588.9 -13756.4 -36.5024 23125.4
 20 09 2015  19 51  -21.5593 18588.9 -13756.3 -36.5024 23125.4
 20 09 2015  19 52  -21.5594 18589.1 -13756.3 -36.5022 23125.5
 20 09 2015  19 53  -21.5592 18589.1 -13756.3 -36.5021 23125.5
 20 09 2015  19 54  -21.5592 18589.3 -13756.3 -36.5018 23125.7
 20 09 2015  19 55  -21.5590 18589.6 -13756.3 -36.5013 23126.0
 20 09 2015  19 56  -21.5588 18590.0 -13756.3 -36.5007 23126.3
 20 09 2015  19 57  -21.5588 18590.6 -13756.3 -36.4999 23126.7
 20 09 2015  19 58  -21.5590 18590.9 -13756.2 -36.4993 23127.0
 20 09 2015  19 59  -21.5592 18591.2 -13756.2 -36.4988 23127.2
 20 09 2015  20 00  -21.5600 18591.5 -13756.1 -36.4982 23127.4
 20 09 2015  20 01  -21.5610 18591.7 -13756.1 -36.4979 23127.5
 20 09 2015  20 02  -21.5617 18591.8 -13756.0 -36.4977 23127.5
 20 09 2015  20 03  -21.5627 18591.7 -13756.1 -36.4978 23127.5
 20 09 2015  20 04  -21.5633 18591.6 -13756.1 -36.4980 23127.4
 20 09 2015  20 05  -21.5636 18591.4 -13756.2 -36.4984 23127.3
 20 09 2015  20 06  -21.5630 18591.6 -13756.3 -36.4984 23127.5
 20 09 2015  20 07  -21.5629 18591.7 -13756.3 -36.4982 23127.7
 20 09 2015  20 08  -21.5630 18591.9 -13756.4 -36.4982 23127.8
 20 09 2015  20 09  -21.5634 18592.0 -13756.3 -36.4979 23127.8
 20 09 2015  20 10  -21.5633 18592.0 -13756.4 -36.4979 23127.9
 20 09 2015  20 11  -21.5636 18592.0 -13756.4 -36.4980 23128.0
 20 09 2015  20 12  -21.5639 18592.1 -13756.5 -36.4981 23128.0
 20 09 2015  20 13  -21.5650 18592.0 -13756.5 -36.4981 23128.0
 20 09 2015  20 14  -21.5652 18592.0 -13756.5 -36.4983 23128.0
 20 09 2015  20 15  -21.5648 18591.9 -13756.6 -36.4985 23127.9
 20 09 2015  20 16  -21.5650 18591.5 -13756.7 -36.4993 23127.6
 20 09 2015  20 17  -21.5655 18591.3 -13756.7 -36.4997 23127.5
 20 09 2015  20 18  -21.5660 18591.0 -13756.8 -36.5003 23127.4
 20 09 2015  20 19  -21.5660 18590.8 -13757.0 -36.5009 23127.3
 20 09 2015  20 20  -21.5663 18590.7 -13757.1 -36.5014 23127.3
 20 09 2015  20 21  -21.5664 18590.8 -13757.3 -36.5015 23127.5
 20 09 2015  20 22  -21.5664 18590.9 -13757.3 -36.5014 23127.6
 20 09 2015  20 23  -21.5666 18590.8 -13757.4 -36.5018 23127.5
 20 09 2015  20 24  -21.5670 18590.8 -13757.5 -36.5021 23127.6
 20 09 2015  20 25  -21.5673 18590.7 -13757.6 -36.5024 23127.7
 20 09 2015  20 26  -21.5675 18590.8 -13757.8 -36.5025 23127.8
 20 09 2015  20 27  -21.5678 18590.8 -13757.8 -36.5026 23127.8
 20 09 2015  20 28  -21.5682 18590.7 -13757.9 -36.5030 23127.8
 20 09 2015  20 29  -21.5688 18590.5 -13758.1 -36.5036 23127.8
 20 09 2015  20 30  -21.5694 18590.5 -13758.2 -36.5038 23127.8
 20 09 2015  20 31  -21.5698 18590.5 -13758.3 -36.5040 23127.8
 20 09 2015  20 32  -21.5702 18590.3 -13758.4 -36.5044 23127.8
 20 09 2015  20 33  -21.5703 18590.4 -13758.6 -36.5047 23127.9
 20 09 2015  20 34  -21.5703 18590.5 -13758.7 -36.5047 23128.1
 20 09 2015  20 35  -21.5704 18590.7 -13758.7 -36.5046 23128.3
 20 09 2015  20 36  -21.5707 18590.8 -13758.9 -36.5046 23128.5
 20 09 2015  20 37  -21.5711 18590.8 -13759.0 -36.5049 23128.4
 20 09 2015  20 38  -21.5710 18591.0 -13759.1 -36.5048 23128.7
 20 09 2015  20 39  -21.5709 18591.1 -13759.2 -36.5048 23128.9
 20 09 2015  20 40  -21.5708 18591.3 -13759.3 -36.5048 23129.0
 20 09 2015  20 41  -21.5707 18591.3 -13759.4 -36.5049 23129.2
 20 09 2015  20 42  -21.5704 18591.6 -13759.5 -36.5048 23129.4
 20 09 2015  20 43  -21.5702 18591.7 -13759.6 -36.5047 23129.6
 20 09 2015  20 44  -21.5700 18591.9 -13759.6 -36.5046 23129.7
 20 09 2015  20 45  -21.5698 18592.3 -13759.7 -36.5040 23130.1
 20 09 2015  20 46  -21.5701 18592.6 -13759.7 -36.5036 23130.4
 20 09 2015  20 47  -21.5704 18592.9 -13759.7 -36.5033 23130.6
 20 09 2015  20 48  -21.5711 18592.9 -13759.7 -36.5033 23130.6
 20 09 2015  20 49  -21.5715 18592.6 -13759.8 -36.5039 23130.5
 20 09 2015  20 50  -21.5717 18592.8 -13759.9 -36.5037 23130.7
 20 09 2015  20 51  -21.5719 18593.0 -13759.9 -36.5036 23130.8
 20 09 2015  20 52  -21.5720 18593.0 -13760.0 -36.5037 23130.9
 20 09 2015  20 53  -21.5725 18593.2 -13760.1 -36.5037 23131.1
 20 09 2015  20 54  -21.5729 18593.2 -13760.1 -36.5038 23131.1
 20 09 2015  20 55  -21.5731 18593.0 -13760.2 -36.5041 23131.0
 20 09 2015  20 56  -21.5733 18593.1 -13760.3 -36.5041 23131.1
 20 09 2015  20 57  -21.5736 18593.0 -13760.4 -36.5044 23131.1
 20 09 2015  20 58  -21.5737 18592.9 -13760.5 -36.5048 23131.1
 20 09 2015  20 59  -21.5728 18593.0 -13760.5 -36.5048 23131.2
 20 09 2015  21 00  -21.5723 18593.2 -13760.6 -36.5046 23131.4
 20 09 2015  21 01  -21.5722 18593.5 -13760.7 -36.5043 23131.6
 20 09 2015  21 02  -21.5722 18593.6 -13760.7 -36.5041 23131.8
 20 09 2015  21 03  -21.5722 18593.8 -13760.6 -36.5038 23131.9
 20 09 2015  21 04  -21.5724 18593.9 -13760.7 -36.5038 23132.0
 20 09 2015  21 05  -21.5727 18594.1 -13760.7 -36.5035 23132.2
 20 09 2015  21 06  -21.5729 18594.3 -13760.7 -36.5031 23132.4
 20 09 2015  21 07  -21.5732 18594.4 -13760.7 -36.5032 23132.4
 20 09 2015  21 08  -21.5733 18594.5 -13760.8 -36.5031 23132.5
 20 09 2015  21 09  -21.5731 18594.8 -13760.8 -36.5027 23132.8
 20 09 2015  21 10  -21.5728 18595.1 -13760.8 -36.5022 23133.1
 20 09 2015  21 11  -21.5723 18595.5 -13760.8 -36.5016 23133.4
 20 09 2015  21 12  -21.5716 18596.2 -13760.8 -36.5005 23133.9
 20 09 2015  21 13  -21.5711 18596.8 -13760.7 -36.4995 23134.4
 20 09 2015  21 14  -21.5711 18597.0 -13760.7 -36.4992 23134.5
 20 09 2015  21 15  -21.5710 18597.2 -13760.7 -36.4990 23134.7
 20 09 2015  21 16  -21.5708 18597.2 -13760.8 -36.4991 23134.7
 20 09 2015  21 17  -21.5708 18597.0 -13760.8 -36.4995 23134.6
 20 09 2015  21 18  -21.5706 18596.9 -13760.9 -36.4998 23134.6
 20 09 2015  21 19  -21.5704 18596.7 -13761.0 -36.5003 23134.5
 20 09 2015  21 20  -21.5705 18596.7 -13761.2 -36.5006 23134.5
 20 09 2015  21 21  -21.5699 18596.9 -13761.2 -36.5004 23134.7
 20 09 2015  21 22  -21.5692 18597.2 -13761.3 -36.5001 23135.0
 20 09 2015  21 23  -21.5688 18597.4 -13761.4 -36.5000 23135.2
 20 09 2015  21 24  -21.5685 18597.5 -13761.5 -36.5000 23135.4
 20 09 2015  21 25  -21.5684 18597.4 -13761.5 -36.5002 23135.3
 20 09 2015  21 26  -21.5687 18597.4 -13761.6 -36.5005 23135.3
 20 09 2015  21 27  -21.5689 18597.1 -13761.7 -36.5012 23135.2
 20 09 2015  21 28  -21.5687 18596.9 -13761.9 -36.5018 23135.1
 20 09 2015  21 29  -21.5683 18596.8 -13762.0 -36.5022 23135.1
 20 09 2015  21 30  -21.5679 18596.8 -13762.1 -36.5024 23135.2
 20 09 2015  21 31  -21.5676 18596.6 -13762.3 -36.5028 23135.1
 20 09 2015  21 32  -21.5671 18596.7 -13762.3 -36.5029 23135.3
 20 09 2015  21 33  -21.5668 18596.7 -13762.4 -36.5030 23135.3
 20 09 2015  21 34  -21.5665 18596.8 -13762.5 -36.5030 23135.4
 20 09 2015  21 35  -21.5663 18597.0 -13762.5 -36.5028 23135.6
 20 09 2015  21 36  -21.5662 18597.2 -13762.5 -36.5026 23135.7
 20 09 2015  21 37  -21.5663 18597.3 -13762.5 -36.5024 23135.8
 20 09 2015  21 38  -21.5662 18597.5 -13762.6 -36.5023 23136.0
 20 09 2015  21 39  -21.5661 18597.6 -13762.6 -36.5020 23136.1
 20 09 2015  21 40  -21.5663 18597.6 -13762.5 -36.5021 23136.0
 20 09 2015  21 41  -21.5664 18597.6 -13762.6 -36.5020 23136.1
 20 09 2015  21 42  -21.5666 18597.5 -13762.6 -36.5022 23136.0
 20 09 2015  21 43  -21.5668 18597.5 -13762.6 -36.5023 23136.0
 20 09 2015  21 44  -21.5670 18597.5 -13762.6 -36.5022 23136.1
 20 09 2015  21 45  -21.5670 18597.5 -13762.6 -36.5022 23136.0
 20 09 2015  21 46  -21.5671 18597.6 -13762.6 -36.5020 23136.1
 20 09 2015  21 47  -21.5670 18597.9 -13762.6 -36.5017 23136.3
 20 09 2015  21 48  -21.5673 18597.9 -13762.7 -36.5018 23136.4
 20 09 2015  21 49  -21.5671 18598.2 -13762.7 -36.5013 23136.7
 20 09 2015  21 50  -21.5671 18598.5 -13762.6 -36.5008 23136.9
 20 09 2015  21 51  -21.5674 18598.7 -13762.6 -36.5006 23137.0
 20 09 2015  21 52  -21.5677 18598.8 -13762.7 -36.5004 23137.1
 20 09 2015  21 53  -21.5680 18598.9 -13762.7 -36.5003 23137.2
 20 09 2015  21 54  -21.5685 18598.9 -13762.7 -36.5003 23137.2
 20 09 2015  21 55  -21.5690 18598.9 -13762.7 -36.5004 23137.2
 20 09 2015  21 56  -21.5688 18599.1 -13762.7 -36.5002 23137.4
 20 09 2015  21 57  -21.5686 18599.4 -13762.7 -36.4997 23137.6
 20 09 2015  21 58  -21.5688 18599.3 -13762.7 -36.4999 23137.5
 20 09 2015  21 59  -21.5686 18599.2 -13762.8 -36.5001 23137.5
 20 09 2015  22 00  -21.5687 18599.2 -13762.8 -36.5001 23137.6
 20 09 2015  22 01  -21.5690 18599.0 -13762.9 -36.5005 23137.4
 20 09 2015  22 02  -21.5693 18598.9 -13762.9 -36.5008 23137.3
 20 09 2015  22 03  -21.5694 18599.0 -13763.0 -36.5008 23137.5
 20 09 2015  22 04  -21.5700 18598.9 -13763.1 -36.5012 23137.4
 20 09 2015  22 05  -21.5703 18598.7 -13763.2 -36.5016 23137.3
 20 09 2015  22 06  -21.5701 18598.9 -13763.3 -36.5016 23137.5
 20 09 2015  22 07  -21.5705 18598.8 -13763.4 -36.5019 23137.6
 20 09 2015  22 08  -21.5709 18598.8 -13763.5 -36.5021 23137.6
 20 09 2015  22 09  -21.5713 18598.7 -13763.6 -36.5023 23137.6
 20 09 2015  22 10  -21.5714 18598.8 -13763.6 -36.5024 23137.7
 20 09 2015  22 11  -21.5715 18598.9 -13763.6 -36.5023 23137.8
 20 09 2015  22 12  -21.5710 18599.0 -13763.6 -36.5021 23137.8
 20 09 2015  22 13  -21.5706 18599.2 -13763.6 -36.5019 23138.0
 20 09 2015  22 14  -21.5702 18599.2 -13763.6 -36.5018 23138.0
 20 09 2015  22 15  -21.5704 18599.1 -13763.6 -36.5019 23138.0
 20 09 2015  22 16  -21.5706 18598.9 -13763.7 -36.5022 23137.8
 20 09 2015  22 17  -21.5706 18599.0 -13763.7 -36.5022 23137.9
 20 09 2015  22 18  -21.5706 18598.8 -13763.7 -36.5025 23137.8
 20 09 2015  22 19  -21.5705 18598.6 -13763.8 -36.5031 23137.6
 20 09 2015  22 20  -21.5698 18598.5 -13763.9 -36.5033 23137.6
 20 09 2015  22 21  -21.5696 18598.4 -13764.0 -36.5037 23137.5
 20 09 2015  22 22  -21.5693 18598.4 -13764.1 -36.5039 23137.6
 20 09 2015  22 23  -21.5695 18598.1 -13764.1 -36.5043 23137.5
 20 09 2015  22 24  -21.5695 18598.0 -13764.2 -36.5048 23137.4
 20 09 2015  22 25  -21.5691 18598.0 -13764.3 -36.5048 23137.5
 20 09 2015  22 26  -21.5688 18598.3 -13764.3 -36.5046 23137.7
 20 09 2015  22 27  -21.5687 18598.3 -13764.4 -36.5046 23137.7
 20 09 2015  22 28  -21.5687 18598.3 -13764.4 -36.5048 23137.7
 20 09 2015  22 29  -21.5690 18598.1 -13764.4 -36.5050 23137.6
 20 09 2015  22 30  -21.5688 18598.2 -13764.5 -36.5050 23137.7
 20 09 2015  22 31  -21.5687 18598.2 -13764.5 -36.5050 23137.8
 20 09 2015  22 32  -21.5685 18598.2 -13764.6 -36.5051 23137.8
 20 09 2015  22 33  -21.5685 18598.0 -13764.6 -36.5056 23137.7
 20 09 2015  22 34  -21.5683 18598.0 -13764.7 -36.5057 23137.7
 20 09 2015  22 35  -21.5682 18597.9 -13764.7 -36.5059 23137.6
 20 09 2015  22 36  -21.5681 18597.8 -13764.8 -36.5062 23137.5
 20 09 2015  22 37  -21.5681 18597.7 -13764.8 -36.5064 23137.5
 20 09 2015  22 38  -21.5678 18597.7 -13764.8 -36.5063 23137.6
 20 09 2015  22 39  -21.5676 18597.7 -13764.9 -36.5065 23137.6
 20 09 2015  22 40  -21.5673 18597.9 -13764.9 -36.5063 23137.8
 20 09 2015  22 41  -21.5667 18598.3 -13764.9 -36.5058 23138.0
 20 09 2015  22 42  -21.5665 18598.3 -13764.9 -36.5056 23138.0
 20 09 2015  22 43  -21.5666 18598.4 -13764.9 -36.5055 23138.1
 20 09 2015  22 44  -21.5672 18598.2 -13764.9 -36.5057 23138.0
 20 09 2015  22 45  -21.5679 18598.0 -13764.9 -36.5060 23137.8
 20 09 2015  22 46  -21.5684 18597.9 -13764.9 -36.5063 23137.8
 20 09 2015  22 47  -21.5686 18597.7 -13765.0 -36.5067 23137.6
 20 09 2015  22 48  -21.5685 18597.9 -13765.0 -36.5064 23137.7
 20 09 2015  22 49  -21.5686 18597.9 -13765.0 -36.5065 23137.7
 20 09 2015  22 50  -21.5687 18597.9 -13765.0 -36.5063 23137.8
 20 09 2015  22 51  -21.5689 18598.0 -13764.9 -36.5061 23137.8
 20 09 2015  22 52  -21.5696 18598.0 -13764.9 -36.5060 23137.8
 20 09 2015  22 53  -21.5710 18597.7 -13764.9 -36.5064 23137.6
 20 09 2015  22 54  -21.5727 18597.5 -13764.9 -36.5068 23137.4
 20 09 2015  22 55  -21.5745 18597.1 -13764.9 -36.5074 23137.1
 20 09 2015  22 56  -21.5761 18597.0 -13764.9 -36.5075 23137.0
 20 09 2015  22 57  -21.5776 18596.6 -13764.9 -36.5081 23136.7
 20 09 2015  22 58  -21.5789 18596.2 -13764.9 -36.5087 23136.3
 20 09 2015  22 59  -21.5796 18595.9 -13764.9 -36.5092 23136.1
 20 09 2015  23 00  -21.5806 18595.7 -13764.9 -36.5094 23136.0
 20 09 2015  23 01  -21.5818 18595.3 -13764.9 -36.5101 23135.6
 20 09 2015  23 02  -21.5836 18594.6 -13764.9 -36.5111 23135.1
 20 09 2015  23 03  -21.5849 18593.9 -13765.0 -36.5125 23134.6
 20 09 2015  23 04  -21.5860 18592.9 -13765.2 -36.5142 23133.9
 20 09 2015  23 05  -21.5865 18591.9 -13765.4 -36.5160 23133.2
 20 09 2015  23 06  -21.5861 18591.2 -13765.6 -36.5174 23132.8
 20 09 2015  23 07  -21.5853 18590.7 -13765.8 -36.5188 23132.5
 20 09 2015  23 08  -21.5848 18590.2 -13766.0 -36.5198 23132.2
 20 09 2015  23 09  -21.5837 18590.0 -13766.2 -36.5205 23132.2
 20 09 2015  23 10  -21.5828 18589.8 -13766.3 -36.5210 23132.1
 20 09 2015  23 11  -21.5820 18589.6 -13766.5 -36.5217 23132.0
 20 09 2015  23 12  -21.5809 18589.7 -13766.6 -36.5219 23132.1
 20 09 2015  23 13  -21.5801 18589.7 -13766.7 -36.5220 23132.2
 20 09 2015  23 14  -21.5796 18589.9 -13766.8 -36.5219 23132.4
 20 09 2015  23 15  -21.5794 18590.1 -13766.9 -36.5217 23132.6
 20 09 2015  23 16  -21.5792 18590.2 -13766.9 -36.5214 23132.7
 20 09 2015  23 17  -21.5793 18590.4 -13766.9 -36.5212 23132.9
 20 09 2015  23 18  -21.5792 18590.7 -13766.9 -36.5209 23133.1
 20 09 2015  23 19  -21.5787 18590.7 -13766.9 -36.5208 23133.1
 20 09 2015  23 20  -21.5784 18590.6 -13767.0 -36.5211 23133.1
 20 09 2015  23 21  -21.5778 18590.7 -13767.0 -36.5211 23133.2
 20 09 2015  23 22  -21.5772 18590.7 -13767.1 -36.5212 23133.2
 20 09 2015  23 23  -21.5767 18590.3 -13767.2 -36.5219 23133.0
 20 09 2015  23 24  -21.5759 18589.9 -13767.3 -36.5228 23132.8
 20 09 2015  23 25  -21.5754 18590.1 -13767.4 -36.5227 23133.0
 20 09 2015  23 26  -21.5749 18590.3 -13767.4 -36.5225 23133.1
 20 09 2015  23 27  -21.5747 18590.5 -13767.5 -36.5223 23133.3
 20 09 2015  23 28  -21.5745 18590.5 -13767.5 -36.5224 23133.3
 20 09 2015  23 29  -21.5741 18590.8 -13767.6 -36.5221 23133.6
 20 09 2015  23 30  -21.5747 18591.1 -13767.5 -36.5215 23133.8
 20 09 2015  23 31  -21.5767 18590.4 -13767.5 -36.5224 23133.3
 20 09 2015  23 32  -21.5780 18590.2 -13767.5 -36.5228 23133.1
 20 09 2015  23 33  -21.5791 18590.1 -13767.6 -36.5230 23133.1
 20 09 2015  23 34  -21.5801 18590.1 -13767.5 -36.5231 23133.0
 20 09 2015  23 35  -21.5812 18589.8 -13767.6 -36.5234 23132.8
 20 09 2015  23 36  -21.5821 18589.7 -13767.6 -36.5238 23132.7
 20 09 2015  23 37  -21.5835 18589.4 -13767.6 -36.5240 23132.5
 20 09 2015  23 38  -21.5855 18589.1 -13767.6 -36.5245 23132.2
 20 09 2015  23 39  -21.5877 18588.7 -13767.6 -36.5251 23131.9
 20 09 2015  23 40  -21.5899 18588.4 -13767.6 -36.5256 23131.6
 20 09 2015  23 41  -21.5915 18588.0 -13767.6 -36.5261 23131.4
 20 09 2015  23 42  -21.5915 18588.0 -13767.6 -36.5261 23131.4
 20 09 2015  23 43  -21.5913 18587.6 -13767.6 -36.5269 23131.1
 20 09 2015  23 44  -21.5912 18587.1 -13767.7 -36.5278 23130.7
 20 09 2015  23 45  -21.5909 18586.6 -13767.8 -36.5287 23130.4
 20 09 2015  23 46  -21.5902 18586.3 -13768.0 -36.5295 23130.3
 20 09 2015  23 47  -21.5896 18585.8 -13768.1 -36.5305 23129.9
 20 09 2015  23 48  -21.5891 18585.2 -13768.3 -36.5318 23129.5
 20 09 2015  23 49  -21.5887 18584.5 -13768.5 -36.5331 23129.1
 20 09 2015  23 50  -21.5882 18583.9 -13768.8 -36.5346 23128.8
 20 09 2015  23 51  -21.5871 18583.5 -13768.9 -36.5355 23128.6
 20 09 2015  23 52  -21.5856 18583.5 -13769.1 -36.5359 23128.7
 20 09 2015  23 53  -21.5843 18583.6 -13769.2 -36.5358 23128.8
 20 09 2015  23 54  -21.5833 18584.1 -13769.3 -36.5353 23129.2
 20 09 2015  23 55  -21.5825 18584.6 -13769.3 -36.5347 23129.6
 20 09 2015  23 56  -21.5820 18585.3 -13769.3 -36.5335 23130.2
 20 09 2015  23 57  -21.5816 18585.9 -13769.2 -36.5323 23130.6
 20 09 2015  23 58  -21.5814 18586.5 -13769.1 -36.5314 23131.0
