CACHOEIRA PAULISTA EMBRACE-05 <297> 1 Min. Reported data

 DD MM YYYY  HH MM   D(Deg)  H(nT)   Z(nT)   I(Deg)   F(nT)

 24 10 2015  00 00  -21.5674 18611.8 -13770.6 -36.4972 23152.3
 24 10 2015  00 01  -21.5660 18611.6 -13770.8 -36.4979 23152.2
 24 10 2015  00 02  -21.5649 18611.6 -13770.9 -36.4981 23152.3
 24 10 2015  00 03  -21.5644 18611.6 -13771.0 -36.4982 23152.4
 24 10 2015  00 04  -21.5641 18611.5 -13771.1 -36.4985 23152.3
 24 10 2015  00 05  -21.5637 18611.5 -13771.2 -36.4987 23152.4
 24 10 2015  00 06  -21.5633 18611.4 -13771.3 -36.4992 23152.4
 24 10 2015  00 07  -21.5631 18611.4 -13771.4 -36.4993 23152.5
 24 10 2015  00 08  -21.5624 18611.6 -13771.5 -36.4992 23152.6
 24 10 2015  00 09  -21.5622 18611.3 -13771.5 -36.4998 23152.4
 24 10 2015  00 10  -21.5630 18610.3 -13771.7 -36.5016 23151.8
 24 10 2015  00 11  -21.5636 18609.9 -13772.0 -36.5027 23151.5
 24 10 2015  00 12  -21.5635 18609.8 -13772.0 -36.5029 23151.5
 24 10 2015  00 13  -21.5634 18609.5 -13772.1 -36.5036 23151.3
 24 10 2015  00 14  -21.5631 18609.5 -13772.3 -36.5039 23151.4
 24 10 2015  00 15  -21.5628 18609.4 -13772.4 -36.5043 23151.4
 24 10 2015  00 16  -21.5622 18609.5 -13772.5 -36.5042 23151.6
 24 10 2015  00 17  -21.5617 18609.4 -13772.6 -36.5045 23151.6
 24 10 2015  00 18  -21.5615 18609.3 -13772.6 -36.5048 23151.5
 24 10 2015  00 19  -21.5614 18609.5 -13772.7 -36.5047 23151.7
 24 10 2015  00 20  -21.5608 18610.0 -13772.7 -36.5039 23152.1
 24 10 2015  00 21  -21.5602 18610.4 -13772.7 -36.5034 23152.4
 24 10 2015  00 22  -21.5596 18610.7 -13772.7 -36.5029 23152.7
 24 10 2015  00 23  -21.5594 18611.0 -13772.7 -36.5025 23152.9
 24 10 2015  00 24  -21.5596 18611.0 -13772.7 -36.5025 23152.9
 24 10 2015  00 25  -21.5592 18611.1 -13772.7 -36.5025 23153.0
 24 10 2015  00 26  -21.5585 18611.2 -13772.7 -36.5022 23153.1
 24 10 2015  00 27  -21.5579 18611.3 -13772.7 -36.5020 23153.2
 24 10 2015  00 28  -21.5576 18611.4 -13772.7 -36.5019 23153.2
 24 10 2015  00 29  -21.5572 18611.7 -13772.7 -36.5015 23153.5
 24 10 2015  00 30  -21.5568 18611.9 -13772.7 -36.5012 23153.6
 24 10 2015  00 31  -21.5564 18611.9 -13772.7 -36.5011 23153.6
 24 10 2015  00 32  -21.5560 18612.1 -13772.7 -36.5009 23153.7
 24 10 2015  00 33  -21.5561 18612.1 -13772.7 -36.5007 23153.8
 24 10 2015  00 34  -21.5560 18612.1 -13772.6 -36.5007 23153.8
 24 10 2015  00 35  -21.5557 18612.0 -13772.7 -36.5010 23153.7
 24 10 2015  00 36  -21.5555 18611.8 -13772.7 -36.5012 23153.5
 24 10 2015  00 37  -21.5550 18611.7 -13772.7 -36.5013 23153.5
 24 10 2015  00 38  -21.5546 18611.6 -13772.7 -36.5015 23153.4
 24 10 2015  00 39  -21.5542 18611.8 -13772.6 -36.5012 23153.5
 24 10 2015  00 40  -21.5539 18611.9 -13772.6 -36.5009 23153.6
 24 10 2015  00 41  -21.5531 18612.2 -13772.6 -36.5005 23153.8
 24 10 2015  00 42  -21.5521 18612.6 -13772.5 -36.4998 23154.1
 24 10 2015  00 43  -21.5511 18613.2 -13772.4 -36.4987 23154.5
 24 10 2015  00 44  -21.5505 18613.6 -13772.4 -36.4980 23154.8
 24 10 2015  00 45  -21.5497 18614.1 -13772.2 -36.4970 23155.1
 24 10 2015  00 46  -21.5487 18614.3 -13772.1 -36.4965 23155.2
 24 10 2015  00 47  -21.5480 18614.6 -13772.1 -36.4960 23155.4
 24 10 2015  00 48  -21.5470 18615.2 -13772.0 -36.4948 23155.9
 24 10 2015  00 49  -21.5464 18615.5 -13771.9 -36.4943 23156.0
 24 10 2015  00 50  -21.5462 18615.7 -13771.8 -36.4938 23156.1
 24 10 2015  00 51  -21.5458 18615.9 -13771.7 -36.4934 23156.2
 24 10 2015  00 52  -21.5458 18615.9 -13771.7 -36.4933 23156.2
 24 10 2015  00 53  -21.5460 18615.8 -13771.7 -36.4934 23156.1
 24 10 2015  00 54  -21.5461 18615.6 -13771.7 -36.4936 23156.0
 24 10 2015  00 55  -21.5459 18615.4 -13771.7 -36.4941 23155.8
 24 10 2015  00 56  -21.5460 18615.0 -13771.8 -36.4948 23155.6
 24 10 2015  00 57  -21.5458 18614.6 -13771.9 -36.4955 23155.3
 24 10 2015  00 58  -21.5453 18614.4 -13771.9 -36.4960 23155.2
 24 10 2015  00 59  -21.5447 18614.3 -13772.0 -36.4963 23155.2
 24 10 2015  01 00  -21.5443 18614.2 -13772.0 -36.4964 23155.0
 24 10 2015  01 01  -21.5444 18614.0 -13772.1 -36.4969 23154.9
 24 10 2015  01 02  -21.5443 18613.9 -13772.2 -36.4970 23154.9
 24 10 2015  01 03  -21.5448 18613.6 -13772.2 -36.4975 23154.7
 24 10 2015  01 04  -21.5453 18613.4 -13772.2 -36.4979 23154.5
 24 10 2015  01 05  -21.5457 18613.3 -13772.2 -36.4981 23154.5
 24 10 2015  01 06  -21.5464 18613.1 -13772.2 -36.4984 23154.3
 24 10 2015  01 07  -21.5472 18612.8 -13772.2 -36.4988 23154.0
 24 10 2015  01 08  -21.5479 18612.5 -13772.2 -36.4994 23153.8
 24 10 2015  01 09  -21.5484 18612.0 -13772.3 -36.5002 23153.5
 24 10 2015  01 10  -21.5489 18611.9 -13772.3 -36.5004 23153.4
 24 10 2015  01 11  -21.5496 18611.3 -13772.4 -36.5013 23153.0
 24 10 2015  01 12  -21.5499 18611.0 -13772.5 -36.5020 23152.7
 24 10 2015  01 13  -21.5505 18610.8 -13772.5 -36.5024 23152.7
 24 10 2015  01 14  -21.5515 18610.5 -13772.6 -36.5031 23152.4
 24 10 2015  01 15  -21.5523 18610.5 -13772.6 -36.5030 23152.5
 24 10 2015  01 16  -21.5532 18610.2 -13772.6 -36.5036 23152.2
 24 10 2015  01 17  -21.5544 18609.9 -13772.7 -36.5041 23152.0
 24 10 2015  01 18  -21.5551 18609.6 -13772.7 -36.5045 23151.8
 24 10 2015  01 19  -21.5558 18609.5 -13772.7 -36.5048 23151.7
 24 10 2015  01 20  -21.5565 18609.1 -13772.8 -36.5054 23151.4
 24 10 2015  01 21  -21.5571 18609.1 -13772.8 -36.5055 23151.4
 24 10 2015  01 22  -21.5579 18608.4 -13772.9 -36.5067 23150.9
 24 10 2015  01 23  -21.5592 18607.8 -13773.0 -36.5078 23150.5
 24 10 2015  01 24  -21.5598 18607.5 -13773.1 -36.5084 23150.3
 24 10 2015  01 25  -21.5602 18607.0 -13773.1 -36.5093 23149.9
 24 10 2015  01 26  -21.5597 18607.2 -13773.2 -36.5092 23150.1
 24 10 2015  01 27  -21.5590 18607.5 -13773.2 -36.5087 23150.4
 24 10 2015  01 28  -21.5590 18607.9 -13773.2 -36.5082 23150.7
 24 10 2015  01 29  -21.5590 18608.1 -13773.2 -36.5077 23150.8
 24 10 2015  01 30  -21.5592 18608.0 -13773.2 -36.5078 23150.8
 24 10 2015  01 31  -21.5594 18608.0 -13773.2 -36.5079 23150.7
 24 10 2015  01 32  -21.5603 18607.6 -13773.2 -36.5085 23150.4
 24 10 2015  01 33  -21.5609 18607.1 -13773.3 -36.5094 23150.1
 24 10 2015  01 34  -21.5614 18606.7 -13773.4 -36.5101 23149.8
 24 10 2015  01 35  -21.5615 18606.7 -13773.4 -36.5102 23149.9
 24 10 2015  01 36  -21.5604 18607.2 -13773.5 -36.5096 23150.3
 24 10 2015  01 37  -21.5588 18607.7 -13773.5 -36.5089 23150.7
 24 10 2015  01 38  -21.5572 18608.1 -13773.5 -36.5083 23151.0
 24 10 2015  01 39  -21.5558 18608.7 -13773.5 -36.5075 23151.6
 24 10 2015  01 40  -21.5550 18609.3 -13773.5 -36.5065 23152.0
 24 10 2015  01 41  -21.5549 18609.7 -13773.4 -36.5058 23152.3
 24 10 2015  01 42  -21.5551 18609.8 -13773.5 -36.5057 23152.4
 24 10 2015  01 43  -21.5555 18610.0 -13773.4 -36.5054 23152.5
 24 10 2015  01 44  -21.5562 18610.1 -13773.3 -36.5050 23152.6
 24 10 2015  01 45  -21.5566 18610.1 -13773.3 -36.5050 23152.5
 24 10 2015  01 46  -21.5566 18609.9 -13773.4 -36.5054 23152.5
 24 10 2015  01 47  -21.5563 18609.9 -13773.4 -36.5055 23152.4
 24 10 2015  01 48  -21.5562 18609.8 -13773.5 -36.5059 23152.4
 24 10 2015  01 49  -21.5562 18609.9 -13773.6 -36.5059 23152.5
 24 10 2015  01 50  -21.5562 18610.2 -13773.6 -36.5054 23152.8
 24 10 2015  01 51  -21.5566 18610.4 -13773.6 -36.5052 23153.0
 24 10 2015  01 52  -21.5571 18610.4 -13773.6 -36.5053 23152.9
 24 10 2015  01 53  -21.5573 18610.3 -13773.6 -36.5053 23152.9
 24 10 2015  01 54  -21.5570 18610.6 -13773.7 -36.5051 23153.1
 24 10 2015  01 55  -21.5568 18610.7 -13773.7 -36.5049 23153.2
 24 10 2015  01 56  -21.5569 18610.7 -13773.7 -36.5049 23153.2
 24 10 2015  01 57  -21.5566 18610.9 -13773.8 -36.5048 23153.4
 24 10 2015  01 58  -21.5563 18611.1 -13773.8 -36.5045 23153.6
 24 10 2015  01 59  -21.5559 18611.3 -13773.8 -36.5042 23153.7
 24 10 2015  02 00  -21.5553 18611.5 -13773.8 -36.5040 23153.9
 24 10 2015  02 01  -21.5550 18611.6 -13773.8 -36.5038 23154.1
 24 10 2015  02 02  -21.5546 18611.8 -13773.8 -36.5036 23154.2
 24 10 2015  02 03  -21.5536 18612.0 -13773.9 -36.5033 23154.4
 24 10 2015  02 04  -21.5527 18612.1 -13773.9 -36.5033 23154.5
 24 10 2015  02 05  -21.5519 18612.4 -13774.0 -36.5030 23154.7
 24 10 2015  02 06  -21.5519 18612.4 -13774.0 -36.5030 23154.8
 24 10 2015  02 07  -21.5515 18612.7 -13774.0 -36.5026 23155.0
 24 10 2015  02 08  -21.5516 18612.7 -13774.0 -36.5026 23155.0
 24 10 2015  02 09  -21.5516 18612.9 -13774.0 -36.5024 23155.2
 24 10 2015  02 10  -21.5519 18612.8 -13774.0 -36.5024 23155.2
 24 10 2015  02 11  -21.5520 18613.0 -13774.1 -36.5023 23155.3
 24 10 2015  02 12  -21.5518 18613.0 -13774.1 -36.5022 23155.4
 24 10 2015  02 13  -21.5520 18613.1 -13774.1 -36.5023 23155.4
 24 10 2015  02 14  -21.5523 18613.0 -13774.2 -36.5026 23155.4
 24 10 2015  02 15  -21.5524 18612.9 -13774.2 -36.5028 23155.3
 24 10 2015  02 16  -21.5525 18612.8 -13774.3 -36.5031 23155.3
 24 10 2015  02 17  -21.5529 18612.6 -13774.4 -36.5034 23155.2
 24 10 2015  02 18  -21.5530 18612.6 -13774.4 -36.5036 23155.2
 24 10 2015  02 19  -21.5530 18612.7 -13774.5 -36.5036 23155.3
 24 10 2015  02 20  -21.5533 18612.7 -13774.5 -36.5036 23155.3
 24 10 2015  02 21  -21.5537 18612.7 -13774.6 -36.5038 23155.4
 24 10 2015  02 22  -21.5542 18612.6 -13774.6 -36.5040 23155.3
 24 10 2015  02 23  -21.5542 18612.4 -13774.7 -36.5044 23155.2
 24 10 2015  02 24  -21.5540 18612.0 -13774.8 -36.5051 23155.0
 24 10 2015  02 25  -21.5535 18611.8 -13774.9 -36.5057 23154.9
 24 10 2015  02 26  -21.5528 18611.8 -13775.1 -36.5060 23155.0
 24 10 2015  02 27  -21.5523 18612.1 -13775.1 -36.5056 23155.3
 24 10 2015  02 28  -21.5517 18612.4 -13775.2 -36.5053 23155.5
 24 10 2015  02 29  -21.5515 18612.4 -13775.2 -36.5053 23155.5
 24 10 2015  02 30  -21.5518 18612.5 -13775.1 -36.5051 23155.5
 24 10 2015  02 31  -21.5515 18612.8 -13775.1 -36.5047 23155.8
 24 10 2015  02 32  -21.5510 18613.0 -13775.1 -36.5043 23156.0
 24 10 2015  02 33  -21.5502 18613.3 -13775.1 -36.5038 23156.2
 24 10 2015  02 34  -21.5490 18613.6 -13775.0 -36.5033 23156.4
 24 10 2015  02 35  -21.5477 18613.9 -13774.9 -36.5026 23156.6
 24 10 2015  02 36  -21.5478 18614.0 -13774.9 -36.5024 23156.6
 24 10 2015  02 37  -21.5492 18613.8 -13774.9 -36.5026 23156.5
 24 10 2015  02 38  -21.5509 18613.6 -13774.9 -36.5030 23156.3
 24 10 2015  02 39  -21.5514 18613.5 -13774.9 -36.5031 23156.2
 24 10 2015  02 40  -21.5507 18613.9 -13774.8 -36.5024 23156.5
 24 10 2015  02 41  -21.5481 18614.4 -13774.8 -36.5016 23156.8
 24 10 2015  02 42  -21.5466 18614.4 -13774.8 -36.5017 23156.8
 24 10 2015  02 43  -21.5456 18614.5 -13774.8 -36.5014 23157.0
 24 10 2015  02 44  -21.5466 18614.1 -13774.8 -36.5022 23156.7
 24 10 2015  02 45  -21.5478 18613.5 -13774.9 -36.5033 23156.2
 24 10 2015  02 46  -21.5487 18612.9 -13775.0 -36.5043 23155.8
 24 10 2015  02 47  -21.5494 18612.4 -13775.1 -36.5052 23155.5
 24 10 2015  02 48  -21.5496 18612.2 -13775.2 -36.5058 23155.3
 24 10 2015  02 49  -21.5503 18612.0 -13775.3 -36.5061 23155.2
 24 10 2015  02 50  -21.5507 18612.0 -13775.3 -36.5062 23155.2
 24 10 2015  02 51  -21.5511 18612.0 -13775.3 -36.5061 23155.2
 24 10 2015  02 52  -21.5516 18612.0 -13775.3 -36.5062 23155.2
 24 10 2015  02 53  -21.5521 18612.0 -13775.3 -36.5061 23155.3
 24 10 2015  02 54  -21.5516 18612.4 -13775.3 -36.5055 23155.6
 24 10 2015  02 55  -21.5515 18613.0 -13775.3 -36.5047 23156.0
 24 10 2015  02 56  -21.5517 18613.9 -13775.1 -36.5029 23156.7
 24 10 2015  02 57  -21.5512 18615.4 -13774.9 -36.5003 23157.7
 24 10 2015  02 58  -21.5520 18616.2 -13774.6 -36.4985 23158.2
 24 10 2015  02 59  -21.5520 18617.0 -13774.4 -36.4970 23158.7
 24 10 2015  03 00  -21.5523 18616.9 -13774.3 -36.4969 23158.6
 24 10 2015  03 01  -21.5533 18616.3 -13774.3 -36.4978 23158.1
 24 10 2015  03 02  -21.5519 18617.0 -13774.2 -36.4967 23158.6
 24 10 2015  03 03  -21.5525 18616.5 -13774.3 -36.4974 23158.3
 24 10 2015  03 04  -21.5515 18616.5 -13774.3 -36.4975 23158.3
 24 10 2015  03 05  -21.5516 18616.1 -13774.3 -36.4982 23158.0
 24 10 2015  03 06  -21.5515 18615.7 -13774.4 -36.4989 23157.7
 24 10 2015  03 07  -21.5520 18615.4 -13774.5 -36.4995 23157.5
 24 10 2015  03 08  -21.5521 18615.4 -13774.5 -36.4997 23157.5
 24 10 2015  03 09  -21.5521 18615.5 -13774.6 -36.4996 23157.6
 24 10 2015  03 10  -21.5518 18615.5 -13774.6 -36.4995 23157.7
 24 10 2015  03 11  -21.5509 18615.8 -13774.7 -36.4993 23157.9
 24 10 2015  03 12  -21.5509 18615.8 -13774.7 -36.4993 23157.9
 24 10 2015  03 13  -21.5513 18615.5 -13774.7 -36.4999 23157.7
 24 10 2015  03 14  -21.5510 18615.3 -13774.8 -36.5003 23157.6
 24 10 2015  03 15  -21.5503 18615.3 -13774.9 -36.5005 23157.6
 24 10 2015  03 16  -21.5503 18615.2 -13774.9 -36.5007 23157.6
 24 10 2015  03 17  -21.5503 18615.1 -13775.0 -36.5009 23157.6
 24 10 2015  03 18  -21.5504 18614.9 -13775.0 -36.5013 23157.4
 24 10 2015  03 19  -21.5502 18614.8 -13775.1 -36.5016 23157.3
 24 10 2015  03 20  -21.5504 18614.5 -13775.1 -36.5022 23157.1
 24 10 2015  03 21  -21.5503 18614.3 -13775.2 -36.5025 23157.0
 24 10 2015  03 22  -21.5505 18614.0 -13775.2 -36.5030 23156.8
 24 10 2015  03 23  -21.5498 18613.8 -13775.3 -36.5036 23156.7
 24 10 2015  03 24  -21.5489 18613.8 -13775.4 -36.5037 23156.8
 24 10 2015  03 25  -21.5475 18614.3 -13775.5 -36.5031 23157.2
 24 10 2015  03 26  -21.5480 18614.1 -13775.5 -36.5035 23157.1
 24 10 2015  03 27  -21.5486 18614.7 -13775.5 -36.5027 23157.5
 24 10 2015  03 28  -21.5483 18615.1 -13775.5 -36.5019 23157.9
 24 10 2015  03 29  -21.5489 18615.5 -13775.4 -36.5013 23158.1
 24 10 2015  03 30  -21.5491 18615.8 -13775.3 -36.5006 23158.4
 24 10 2015  03 31  -21.5487 18616.5 -13775.3 -36.4995 23158.8
 24 10 2015  03 32  -21.5488 18616.6 -13775.2 -36.4993 23158.9
 24 10 2015  03 33  -21.5489 18616.7 -13775.2 -36.4991 23159.0
 24 10 2015  03 34  -21.5492 18616.4 -13775.2 -36.4996 23158.7
 24 10 2015  03 35  -21.5495 18615.9 -13775.3 -36.5005 23158.3
 24 10 2015  03 36  -21.5496 18615.5 -13775.4 -36.5013 23158.1
 24 10 2015  03 37  -21.5493 18615.5 -13775.6 -36.5016 23158.2
 24 10 2015  03 38  -21.5484 18615.8 -13775.6 -36.5012 23158.4
 24 10 2015  03 39  -21.5498 18615.6 -13775.7 -36.5015 23158.4
 24 10 2015  03 40  -21.5491 18615.8 -13775.7 -36.5013 23158.5
 24 10 2015  03 41  -21.5490 18616.1 -13775.6 -36.5008 23158.7
 24 10 2015  03 42  -21.5485 18616.2 -13775.7 -36.5006 23158.9
 24 10 2015  03 43  -21.5487 18616.5 -13775.7 -36.5004 23159.1
 24 10 2015  03 44  -21.5481 18616.9 -13775.7 -36.4999 23159.4
 24 10 2015  03 45  -21.5480 18617.1 -13775.7 -36.4996 23159.6
 24 10 2015  03 46  -21.5485 18617.1 -13775.8 -36.4996 23159.6
 24 10 2015  03 47  -21.5492 18617.3 -13775.8 -36.4993 23159.8
 24 10 2015  03 48  -21.5506 18617.1 -13775.7 -36.4994 23159.6
 24 10 2015  03 49  -21.5518 18617.0 -13775.7 -36.4996 23159.5
 24 10 2015  03 50  -21.5522 18617.1 -13775.7 -36.4994 23159.6
 24 10 2015  03 51  -21.5523 18617.3 -13775.7 -36.4992 23159.7
 24 10 2015  03 52  -21.5520 18617.2 -13775.7 -36.4993 23159.6
 24 10 2015  03 53  -21.5514 18617.0 -13775.8 -36.4998 23159.5
 24 10 2015  03 54  -21.5504 18616.9 -13775.9 -36.5001 23159.5
 24 10 2015  03 55  -21.5491 18616.8 -13776.0 -36.5005 23159.5
 24 10 2015  03 56  -21.5483 18616.5 -13776.1 -36.5013 23159.3
 24 10 2015  03 57  -21.5481 18615.9 -13776.3 -36.5025 23159.0
 24 10 2015  03 58  -21.5485 18615.3 -13776.4 -36.5035 23158.6
 24 10 2015  03 59  -21.5493 18615.1 -13776.6 -36.5042 23158.5
 24 10 2015  04 00  -21.5500 18615.0 -13776.7 -36.5045 23158.4
 24 10 2015  04 01  -21.5510 18614.8 -13776.7 -36.5047 23158.3
 24 10 2015  04 02  -21.5518 18614.7 -13776.7 -36.5049 23158.3
 24 10 2015  04 03  -21.5529 18614.6 -13776.7 -36.5051 23158.1
 24 10 2015  04 04  -21.5536 18614.4 -13776.7 -36.5054 23158.0
 24 10 2015  04 05  -21.5540 18614.1 -13776.7 -36.5059 23157.8
 24 10 2015  04 06  -21.5541 18613.9 -13776.7 -36.5062 23157.6
 24 10 2015  04 07  -21.5552 18613.7 -13776.8 -36.5067 23157.5
 24 10 2015  04 08  -21.5554 18613.8 -13776.8 -36.5065 23157.6
 24 10 2015  04 09  -21.5576 18613.6 -13776.8 -36.5068 23157.4
 24 10 2015  04 10  -21.5583 18613.9 -13776.7 -36.5062 23157.7
 24 10 2015  04 11  -21.5595 18613.9 -13776.6 -36.5061 23157.5
 24 10 2015  04 12  -21.5592 18614.6 -13776.6 -36.5049 23158.0
 24 10 2015  04 13  -21.5596 18614.8 -13776.5 -36.5043 23158.2
 24 10 2015  04 14  -21.5591 18614.9 -13776.4 -36.5040 23158.2
 24 10 2015  04 15  -21.5587 18615.0 -13776.3 -36.5038 23158.3
 24 10 2015  04 16  -21.5578 18615.7 -13776.3 -36.5027 23158.8
 24 10 2015  04 17  -21.5579 18615.6 -13776.2 -36.5025 23158.7
 24 10 2015  04 18  -21.5571 18615.7 -13776.1 -36.5022 23158.7
 24 10 2015  04 19  -21.5566 18616.1 -13776.1 -36.5017 23159.0
 24 10 2015  04 20  -21.5560 18616.4 -13776.0 -36.5011 23159.2
 24 10 2015  04 21  -21.5559 18616.6 -13775.9 -36.5006 23159.3
 24 10 2015  04 22  -21.5557 18616.6 -13775.9 -36.5006 23159.3
 24 10 2015  04 23  -21.5549 18617.1 -13775.9 -36.4999 23159.6
 24 10 2015  04 24  -21.5546 18617.6 -13775.8 -36.4989 23160.0
 24 10 2015  04 25  -21.5549 18617.9 -13775.7 -36.4983 23160.2
 24 10 2015  04 26  -21.5553 18618.2 -13775.6 -36.4976 23160.4
 24 10 2015  04 27  -21.5554 18618.7 -13775.5 -36.4966 23160.7
 24 10 2015  04 28  -21.5542 18619.8 -13775.3 -36.4947 23161.5
 24 10 2015  04 29  -21.5539 18620.7 -13775.1 -36.4929 23162.1
 24 10 2015  04 30  -21.5534 18621.5 -13774.8 -36.4914 23162.6
 24 10 2015  04 31  -21.5530 18622.3 -13774.6 -36.4897 23163.1
 24 10 2015  04 32  -21.5524 18623.0 -13774.4 -36.4882 23163.6
 24 10 2015  04 33  -21.5520 18623.5 -13774.3 -36.4872 23163.9
 24 10 2015  04 34  -21.5503 18624.3 -13774.2 -36.4859 23164.4
 24 10 2015  04 35  -21.5505 18624.1 -13774.1 -36.4859 23164.3
 24 10 2015  04 36  -21.5494 18624.3 -13774.1 -36.4857 23164.4
 24 10 2015  04 37  -21.5497 18624.3 -13774.1 -36.4856 23164.4
 24 10 2015  04 38  -21.5497 18625.0 -13773.9 -36.4844 23164.8
 24 10 2015  04 39  -21.5503 18625.2 -13773.8 -36.4838 23165.0
 24 10 2015  04 40  -21.5499 18625.4 -13773.7 -36.4833 23165.1
 24 10 2015  04 41  -21.5490 18625.6 -13773.6 -36.4828 23165.2
 24 10 2015  04 42  -21.5487 18625.5 -13773.5 -36.4828 23165.0
 24 10 2015  04 43  -21.5483 18625.7 -13773.5 -36.4825 23165.1
 24 10 2015  04 44  -21.5479 18625.6 -13773.5 -36.4825 23165.1
 24 10 2015  04 45  -21.5471 18625.5 -13773.4 -36.4826 23165.0
 24 10 2015  04 46  -21.5467 18625.3 -13773.4 -36.4829 23164.8
 24 10 2015  04 47  -21.5462 18625.1 -13773.4 -36.4831 23164.7
 24 10 2015  04 48  -21.5457 18625.0 -13773.4 -36.4833 23164.6
 24 10 2015  04 49  -21.5449 18625.0 -13773.4 -36.4834 23164.5
 24 10 2015  04 50  -21.5439 18625.0 -13773.4 -36.4833 23164.5
 24 10 2015  04 51  -21.5428 18624.9 -13773.4 -36.4835 23164.5
 24 10 2015  04 52  -21.5416 18624.7 -13773.4 -36.4837 23164.3
 24 10 2015  04 53  -21.5405 18624.4 -13773.4 -36.4842 23164.1
 24 10 2015  04 54  -21.5397 18624.2 -13773.5 -36.4846 23164.0
 24 10 2015  04 55  -21.5394 18623.8 -13773.5 -36.4852 23163.7
 24 10 2015  04 56  -21.5391 18623.5 -13773.6 -36.4858 23163.5
 24 10 2015  04 57  -21.5389 18623.3 -13773.6 -36.4862 23163.3
 24 10 2015  04 58  -21.5386 18623.2 -13773.6 -36.4864 23163.3
 24 10 2015  04 59  -21.5381 18623.2 -13773.7 -36.4864 23163.3
 24 10 2015  05 00  -21.5373 18623.2 -13773.7 -36.4865 23163.3
 24 10 2015  05 01  -21.5364 18623.1 -13773.7 -36.4867 23163.2
 24 10 2015  05 02  -21.5356 18623.0 -13773.7 -36.4868 23163.2
 24 10 2015  05 03  -21.5353 18623.0 -13773.7 -36.4868 23163.1
 24 10 2015  05 04  -21.5351 18622.8 -13773.7 -36.4870 23163.0
 24 10 2015  05 05  -21.5350 18622.8 -13773.7 -36.4870 23163.0
 24 10 2015  05 06  -21.5345 18622.8 -13773.7 -36.4871 23162.9
 24 10 2015  05 07  -21.5343 18622.7 -13773.7 -36.4873 23162.9
 24 10 2015  05 08  -21.5341 18622.7 -13773.7 -36.4873 23162.9
 24 10 2015  05 09  -21.5342 18622.7 -13773.6 -36.4871 23162.9
 24 10 2015  05 10  -21.5349 18622.8 -13773.6 -36.4869 23162.9
 24 10 2015  05 11  -21.5359 18623.1 -13773.5 -36.4862 23163.1
 24 10 2015  05 12  -21.5370 18623.1 -13773.4 -36.4860 23163.1
 24 10 2015  05 13  -21.5379 18623.1 -13773.4 -36.4860 23163.0
 24 10 2015  05 14  -21.5388 18623.1 -13773.3 -36.4859 23163.0
 24 10 2015  05 15  -21.5397 18622.8 -13773.3 -36.4862 23162.7
 24 10 2015  05 16  -21.5407 18622.4 -13773.2 -36.4867 23162.4
 24 10 2015  05 17  -21.5417 18622.1 -13773.2 -36.4872 23162.2
 24 10 2015  05 18  -21.5427 18621.9 -13773.3 -36.4876 23162.0
 24 10 2015  05 19  -21.5436 18621.9 -13773.3 -36.4876 23162.0
 24 10 2015  05 20  -21.5444 18621.8 -13773.2 -36.4876 23161.9
 24 10 2015  05 21  -21.5452 18621.7 -13773.2 -36.4877 23161.8
 24 10 2015  05 22  -21.5455 18621.6 -13773.2 -36.4879 23161.7
 24 10 2015  05 23  -21.5462 18621.5 -13773.2 -36.4881 23161.6
 24 10 2015  05 24  -21.5470 18621.6 -13773.2 -36.4878 23161.7
 24 10 2015  05 25  -21.5474 18621.9 -13773.1 -36.4872 23161.9
 24 10 2015  05 26  -21.5479 18622.0 -13773.1 -36.4869 23162.0
 24 10 2015  05 27  -21.5480 18622.0 -13773.0 -36.4869 23161.9
 24 10 2015  05 28  -21.5476 18621.7 -13773.1 -36.4874 23161.7
 24 10 2015  05 29  -21.5475 18621.2 -13773.1 -36.4883 23161.4
 24 10 2015  05 30  -21.5477 18620.5 -13773.3 -36.4896 23160.9
 24 10 2015  05 31  -21.5478 18619.9 -13773.4 -36.4908 23160.5
 24 10 2015  05 32  -21.5482 18619.6 -13773.5 -36.4915 23160.3
 24 10 2015  05 33  -21.5489 18619.4 -13773.6 -36.4920 23160.2
 24 10 2015  05 34  -21.5495 18619.4 -13773.6 -36.4919 23160.2
 24 10 2015  05 35  -21.5498 18619.6 -13773.6 -36.4917 23160.4
 24 10 2015  05 36  -21.5500 18619.7 -13773.6 -36.4915 23160.4
 24 10 2015  05 37  -21.5498 18619.6 -13773.6 -36.4916 23160.4
 24 10 2015  05 38  -21.5493 18619.4 -13773.7 -36.4920 23160.2
 24 10 2015  05 39  -21.5490 18619.2 -13773.7 -36.4924 23160.1
 24 10 2015  05 40  -21.5491 18618.9 -13773.8 -36.4931 23159.9
 24 10 2015  05 41  -21.5490 18618.5 -13773.9 -36.4938 23159.6
 24 10 2015  05 42  -21.5486 18618.3 -13774.0 -36.4943 23159.5
 24 10 2015  05 43  -21.5480 18618.0 -13774.0 -36.4948 23159.4
 24 10 2015  05 44  -21.5476 18617.8 -13774.1 -36.4954 23159.2
 24 10 2015  05 45  -21.5470 18617.6 -13774.2 -36.4957 23159.1
 24 10 2015  05 46  -21.5470 18617.6 -13774.2 -36.4958 23159.1
 24 10 2015  05 47  -21.5469 18617.7 -13774.2 -36.4956 23159.2
 24 10 2015  05 48  -21.5469 18617.8 -13774.2 -36.4955 23159.3
 24 10 2015  05 49  -21.5470 18617.9 -13774.2 -36.4954 23159.4
 24 10 2015  05 50  -21.5469 18618.1 -13774.2 -36.4951 23159.5
 24 10 2015  05 51  -21.5471 18618.4 -13774.2 -36.4945 23159.7
 24 10 2015  05 52  -21.5474 18618.7 -13774.1 -36.4939 23159.9
 24 10 2015  05 53  -21.5473 18619.2 -13774.0 -36.4930 23160.3
 24 10 2015  05 54  -21.5464 18619.8 -13773.9 -36.4919 23160.7
 24 10 2015  05 55  -21.5455 18620.3 -13773.8 -36.4909 23161.0
 24 10 2015  05 56  -21.5446 18620.5 -13773.8 -36.4907 23161.1
 24 10 2015  05 57  -21.5434 18620.4 -13773.7 -36.4907 23161.1
 24 10 2015  05 58  -21.5429 18619.6 -13773.8 -36.4920 23160.5
 24 10 2015  05 59  -21.5423 18618.8 -13774.0 -36.4936 23160.0
 24 10 2015  06 00  -21.5420 18618.2 -13774.2 -36.4949 23159.6
 24 10 2015  06 01  -21.5418 18618.2 -13774.4 -36.4952 23159.7
 24 10 2015  06 02  -21.5425 18618.2 -13774.4 -36.4953 23159.7
 24 10 2015  06 03  -21.5425 18618.1 -13774.5 -36.4956 23159.6
 24 10 2015  06 04  -21.5415 18617.8 -13774.5 -36.4961 23159.5
 24 10 2015  06 05  -21.5413 18617.5 -13774.6 -36.4967 23159.3
 24 10 2015  06 06  -21.5413 18617.4 -13774.7 -36.4970 23159.2
 24 10 2015  06 07  -21.5419 18617.3 -13774.7 -36.4972 23159.2
 24 10 2015  06 08  -21.5426 18617.2 -13774.7 -36.4974 23159.1
 24 10 2015  06 09  -21.5430 18617.1 -13774.8 -36.4976 23159.0
 24 10 2015  06 10  -21.5426 18616.9 -13774.8 -36.4980 23158.9
 24 10 2015  06 11  -21.5421 18616.6 -13774.9 -36.4985 23158.7
 24 10 2015  06 12  -21.5419 18616.5 -13775.0 -36.4989 23158.6
 24 10 2015  06 13  -21.5422 18616.4 -13775.0 -36.4991 23158.6
 24 10 2015  06 14  -21.5426 18616.4 -13775.0 -36.4991 23158.6
 24 10 2015  06 15  -21.5429 18616.4 -13775.0 -36.4992 23158.6
 24 10 2015  06 16  -21.5430 18616.4 -13775.0 -36.4992 23158.6
 24 10 2015  06 17  -21.5435 18616.5 -13775.1 -36.4990 23158.8
 24 10 2015  06 18  -21.5439 18616.7 -13775.0 -36.4986 23158.9
 24 10 2015  06 19  -21.5446 18616.9 -13775.0 -36.4983 23159.0
 24 10 2015  06 20  -21.5451 18616.9 -13774.9 -36.4983 23159.0
 24 10 2015  06 21  -21.5458 18616.8 -13775.0 -36.4984 23158.9
 24 10 2015  06 22  -21.5472 18616.7 -13774.9 -36.4985 23158.8
 24 10 2015  06 23  -21.5482 18616.6 -13774.9 -36.4987 23158.7
 24 10 2015  06 24  -21.5486 18616.5 -13774.9 -36.4988 23158.6
 24 10 2015  06 25  -21.5486 18616.3 -13775.0 -36.4991 23158.5
 24 10 2015  06 26  -21.5485 18616.2 -13775.0 -36.4995 23158.4
 24 10 2015  06 27  -21.5487 18616.0 -13775.0 -36.4998 23158.3
 24 10 2015  06 28  -21.5491 18615.9 -13775.1 -36.4999 23158.2
 24 10 2015  06 29  -21.5496 18615.8 -13775.1 -36.5002 23158.2
 24 10 2015  06 30  -21.5497 18615.7 -13775.1 -36.5004 23158.1
 24 10 2015  06 31  -21.5495 18615.6 -13775.2 -36.5007 23158.1
 24 10 2015  06 32  -21.5493 18616.0 -13775.2 -36.5001 23158.4
 24 10 2015  06 33  -21.5490 18616.3 -13775.2 -36.4996 23158.6
 24 10 2015  06 34  -21.5480 18616.7 -13775.1 -36.4990 23158.9
 24 10 2015  06 35  -21.5470 18617.0 -13775.1 -36.4985 23159.2
 24 10 2015  06 36  -21.5456 18617.3 -13775.1 -36.4980 23159.4
 24 10 2015  06 37  -21.5443 18617.4 -13775.2 -36.4979 23159.5
 24 10 2015  06 38  -21.5430 18617.8 -13775.1 -36.4973 23159.8
 24 10 2015  06 39  -21.5420 18618.1 -13775.2 -36.4970 23160.0
 24 10 2015  06 40  -21.5414 18618.3 -13775.2 -36.4967 23160.2
 24 10 2015  06 41  -21.5406 18618.5 -13775.2 -36.4963 23160.4
 24 10 2015  06 42  -21.5396 18619.2 -13775.2 -36.4954 23160.9
 24 10 2015  06 43  -21.5386 18619.7 -13775.1 -36.4944 23161.4
 24 10 2015  06 44  -21.5374 18620.1 -13775.1 -36.4938 23161.6
 24 10 2015  06 45  -21.5365 18620.5 -13775.1 -36.4931 23162.0
 24 10 2015  06 46  -21.5356 18620.9 -13775.0 -36.4925 23162.2
 24 10 2015  06 47  -21.5344 18621.2 -13775.0 -36.4920 23162.5
 24 10 2015  06 48  -21.5326 18621.5 -13775.0 -36.4916 23162.8
 24 10 2015  06 49  -21.5308 18622.0 -13775.1 -36.4910 23163.1
 24 10 2015  06 50  -21.5291 18622.1 -13775.1 -36.4908 23163.3
 24 10 2015  06 51  -21.5277 18622.4 -13775.1 -36.4905 23163.5
 24 10 2015  06 52  -21.5260 18622.7 -13775.2 -36.4902 23163.8
 24 10 2015  06 53  -21.5243 18623.0 -13775.3 -36.4899 23164.1
 24 10 2015  06 54  -21.5231 18623.4 -13775.3 -36.4894 23164.4
 24 10 2015  06 55  -21.5226 18623.6 -13775.3 -36.4890 23164.6
 24 10 2015  06 56  -21.5226 18623.9 -13775.3 -36.4886 23164.8
 24 10 2015  06 57  -21.5224 18624.1 -13775.3 -36.4882 23165.0
 24 10 2015  06 58  -21.5220 18624.4 -13775.2 -36.4879 23165.1
 24 10 2015  06 59  -21.5217 18624.6 -13775.2 -36.4875 23165.3
 24 10 2015  07 00  -21.5213 18624.8 -13775.2 -36.4871 23165.5
 24 10 2015  07 01  -21.5212 18625.1 -13775.2 -36.4867 23165.7
 24 10 2015  07 02  -21.5214 18625.3 -13775.1 -36.4862 23165.8
 24 10 2015  07 03  -21.5220 18625.4 -13775.0 -36.4860 23165.8
 24 10 2015  07 04  -21.5226 18625.5 -13775.0 -36.4856 23165.9
 24 10 2015  07 05  -21.5231 18625.8 -13774.9 -36.4851 23166.1
 24 10 2015  07 06  -21.5230 18626.1 -13774.9 -36.4846 23166.3
 24 10 2015  07 07  -21.5228 18625.9 -13774.8 -36.4847 23166.2
 24 10 2015  07 08  -21.5225 18625.9 -13774.8 -36.4848 23166.1
 24 10 2015  07 09  -21.5223 18626.2 -13774.8 -36.4842 23166.4
 24 10 2015  07 10  -21.5223 18626.3 -13774.8 -36.4841 23166.5
 24 10 2015  07 11  -21.5226 18626.5 -13774.7 -36.4837 23166.5
 24 10 2015  07 12  -21.5229 18626.5 -13774.7 -36.4835 23166.6
 24 10 2015  07 13  -21.5229 18626.7 -13774.6 -36.4832 23166.7
 24 10 2015  07 14  -21.5233 18626.7 -13774.6 -36.4831 23166.6
 24 10 2015  07 15  -21.5235 18626.8 -13774.5 -36.4829 23166.7
 24 10 2015  07 16  -21.5232 18626.9 -13774.5 -36.4828 23166.7
 24 10 2015  07 17  -21.5235 18626.8 -13774.5 -36.4827 23166.7
 24 10 2015  07 18  -21.5232 18626.9 -13774.5 -36.4827 23166.7
 24 10 2015  07 19  -21.5230 18627.0 -13774.5 -36.4826 23166.8
 24 10 2015  07 20  -21.5235 18626.9 -13774.5 -36.4827 23166.8
 24 10 2015  07 21  -21.5237 18626.8 -13774.4 -36.4826 23166.7
 24 10 2015  07 22  -21.5238 18626.8 -13774.5 -36.4828 23166.6
 24 10 2015  07 23  -21.5241 18626.8 -13774.5 -36.4828 23166.6
 24 10 2015  07 24  -21.5243 18626.7 -13774.5 -36.4829 23166.6
 24 10 2015  07 25  -21.5244 18626.8 -13774.5 -36.4829 23166.6
 24 10 2015  07 26  -21.5244 18626.8 -13774.5 -36.4829 23166.7
 24 10 2015  07 27  -21.5246 18626.9 -13774.5 -36.4828 23166.7
 24 10 2015  07 28  -21.5246 18626.9 -13774.5 -36.4826 23166.7
 24 10 2015  07 29  -21.5247 18626.9 -13774.5 -36.4828 23166.7
 24 10 2015  07 30  -21.5247 18626.8 -13774.5 -36.4827 23166.7
 24 10 2015  07 31  -21.5247 18626.7 -13774.5 -36.4829 23166.6
 24 10 2015  07 32  -21.5249 18626.4 -13774.5 -36.4834 23166.4
 24 10 2015  07 33  -21.5253 18626.4 -13774.6 -36.4835 23166.4
 24 10 2015  07 34  -21.5257 18626.4 -13774.6 -36.4837 23166.4
 24 10 2015  07 35  -21.5260 18626.4 -13774.6 -36.4835 23166.4
 24 10 2015  07 36  -21.5260 18626.6 -13774.5 -36.4831 23166.5
 24 10 2015  07 37  -21.5259 18626.8 -13774.5 -36.4828 23166.6
 24 10 2015  07 38  -21.5257 18627.2 -13774.4 -36.4820 23166.9
 24 10 2015  07 39  -21.5256 18627.6 -13774.3 -36.4813 23167.2
 24 10 2015  07 40  -21.5253 18628.1 -13774.3 -36.4804 23167.6
 24 10 2015  07 41  -21.5250 18628.5 -13774.2 -36.4797 23167.8
 24 10 2015  07 42  -21.5249 18628.7 -13774.1 -36.4793 23168.0
 24 10 2015  07 43  -21.5249 18628.5 -13774.1 -36.4795 23167.8
 24 10 2015  07 44  -21.5250 18628.4 -13774.1 -36.4797 23167.7
 24 10 2015  07 45  -21.5257 18627.9 -13774.1 -36.4803 23167.3
 24 10 2015  07 46  -21.5264 18627.4 -13774.1 -36.4812 23167.0
 24 10 2015  07 47  -21.5271 18626.9 -13774.2 -36.4822 23166.6
 24 10 2015  07 48  -21.5269 18626.7 -13774.3 -36.4826 23166.4
 24 10 2015  07 49  -21.5270 18626.7 -13774.3 -36.4826 23166.5
 24 10 2015  07 50  -21.5272 18626.7 -13774.4 -36.4826 23166.5
 24 10 2015  07 51  -21.5273 18626.7 -13774.3 -36.4826 23166.5
 24 10 2015  07 52  -21.5273 18626.7 -13774.3 -36.4826 23166.5
 24 10 2015  07 53  -21.5271 18626.6 -13774.3 -36.4827 23166.4
 24 10 2015  07 54  -21.5270 18626.6 -13774.3 -36.4826 23166.4
 24 10 2015  07 55  -21.5270 18626.6 -13774.3 -36.4826 23166.4
 24 10 2015  07 56  -21.5269 18626.5 -13774.2 -36.4827 23166.3
 24 10 2015  07 57  -21.5269 18626.4 -13774.2 -36.4828 23166.2
 24 10 2015  07 58  -21.5272 18626.2 -13774.2 -36.4831 23166.0
 24 10 2015  07 59  -21.5276 18626.1 -13774.2 -36.4833 23165.9
 24 10 2015  08 00  -21.5280 18625.8 -13774.2 -36.4837 23165.7
 24 10 2015  08 01  -21.5285 18625.6 -13774.2 -36.4840 23165.5
 24 10 2015  08 02  -21.5288 18625.3 -13774.3 -36.4845 23165.3
 24 10 2015  08 03  -21.5294 18625.1 -13774.3 -36.4850 23165.2
 24 10 2015  08 04  -21.5296 18624.9 -13774.3 -36.4853 23165.0
 24 10 2015  08 05  -21.5300 18624.6 -13774.3 -36.4857 23164.8
 24 10 2015  08 06  -21.5306 18624.1 -13774.3 -36.4865 23164.4
 24 10 2015  08 07  -21.5317 18623.6 -13774.4 -36.4874 23164.1
 24 10 2015  08 08  -21.5327 18623.3 -13774.5 -36.4879 23163.9
 24 10 2015  08 09  -21.5328 18623.0 -13774.6 -36.4887 23163.7
 24 10 2015  08 10  -21.5323 18623.1 -13774.7 -36.4886 23163.7
 24 10 2015  08 11  -21.5326 18623.2 -13774.6 -36.4883 23163.8
 24 10 2015  08 12  -21.5324 18623.3 -13774.5 -36.4880 23163.9
 24 10 2015  08 13  -21.5326 18623.4 -13774.5 -36.4879 23163.9
 24 10 2015  08 14  -21.5326 18623.2 -13774.5 -36.4881 23163.8
 24 10 2015  08 15  -21.5329 18623.1 -13774.5 -36.4883 23163.7
 24 10 2015  08 16  -21.5326 18623.2 -13774.5 -36.4882 23163.8
 24 10 2015  08 17  -21.5326 18622.9 -13774.5 -36.4886 23163.6
 24 10 2015  08 18  -21.5328 18622.6 -13774.6 -36.4893 23163.4
 24 10 2015  08 19  -21.5325 18622.5 -13774.7 -36.4896 23163.3
 24 10 2015  08 20  -21.5323 18622.1 -13774.8 -36.4903 23163.1
 24 10 2015  08 21  -21.5322 18621.9 -13774.9 -36.4907 23163.0
 24 10 2015  08 22  -21.5322 18621.6 -13774.9 -36.4913 23162.8
 24 10 2015  08 23  -21.5321 18621.5 -13775.1 -36.4917 23162.7
 24 10 2015  08 24  -21.5320 18621.4 -13775.1 -36.4920 23162.7
 24 10 2015  08 25  -21.5319 18621.2 -13775.2 -36.4924 23162.6
 24 10 2015  08 26  -21.5315 18621.4 -13775.3 -36.4923 23162.8
 24 10 2015  08 27  -21.5310 18621.4 -13775.3 -36.4923 23162.8
 24 10 2015  08 28  -21.5308 18621.5 -13775.3 -36.4923 23162.9
 24 10 2015  08 29  -21.5300 18621.5 -13775.4 -36.4923 23163.0
 24 10 2015  08 30  -21.5293 18622.1 -13775.5 -36.4917 23163.4
 24 10 2015  08 31  -21.5287 18622.2 -13775.5 -36.4916 23163.6
 24 10 2015  08 32  -21.5277 18622.4 -13775.6 -36.4913 23163.8
 24 10 2015  08 33  -21.5272 18622.6 -13775.6 -36.4912 23163.9
 24 10 2015  08 34  -21.5267 18622.7 -13775.7 -36.4912 23164.1
 24 10 2015  08 35  -21.5265 18622.8 -13775.8 -36.4913 23164.2
 24 10 2015  08 36  -21.5265 18622.8 -13775.9 -36.4914 23164.2
 24 10 2015  08 37  -21.5268 18622.9 -13776.0 -36.4915 23164.4
 24 10 2015  08 38  -21.5275 18622.8 -13776.0 -36.4918 23164.3
 24 10 2015  08 39  -21.5286 18622.7 -13776.1 -36.4921 23164.3
 24 10 2015  08 40  -21.5288 18622.6 -13776.3 -36.4925 23164.3
 24 10 2015  08 41  -21.5289 18622.5 -13776.4 -36.4929 23164.3
 24 10 2015  08 42  -21.5289 18622.5 -13776.5 -36.4931 23164.4
 24 10 2015  08 43  -21.5290 18622.4 -13776.6 -36.4934 23164.4
 24 10 2015  08 44  -21.5289 18622.4 -13776.7 -36.4937 23164.4
 24 10 2015  08 45  -21.5293 18622.4 -13776.8 -36.4938 23164.5
 24 10 2015  08 46  -21.5293 18622.4 -13776.9 -36.4941 23164.5
 24 10 2015  08 47  -21.5289 18622.3 -13777.0 -36.4944 23164.5
 24 10 2015  08 48  -21.5284 18622.3 -13777.1 -36.4945 23164.6
 24 10 2015  08 49  -21.5279 18622.3 -13777.2 -36.4948 23164.7
 24 10 2015  08 50  -21.5274 18622.3 -13777.3 -36.4951 23164.7
 24 10 2015  08 51  -21.5272 18622.1 -13777.5 -36.4956 23164.7
 24 10 2015  08 52  -21.5276 18622.0 -13777.6 -36.4961 23164.6
 24 10 2015  08 53  -21.5286 18621.9 -13777.7 -36.4965 23164.6
 24 10 2015  08 54  -21.5295 18621.8 -13777.8 -36.4968 23164.6
 24 10 2015  08 55  -21.5310 18621.8 -13777.9 -36.4970 23164.7
 24 10 2015  08 56  -21.5323 18621.9 -13778.0 -36.4970 23164.8
 24 10 2015  08 57  -21.5336 18621.8 -13778.0 -36.4972 23164.8
 24 10 2015  08 58  -21.5343 18621.9 -13778.1 -36.4972 23164.9
 24 10 2015  08 59  -21.5348 18621.8 -13778.3 -36.4976 23164.9
 24 10 2015  09 00  -21.5355 18621.8 -13778.4 -36.4978 23164.9
 24 10 2015  09 01  -21.5352 18622.0 -13778.5 -36.4977 23165.2
 24 10 2015  09 02  -21.5353 18622.0 -13778.5 -36.4979 23165.2
 24 10 2015  09 03  -21.5359 18621.9 -13778.6 -36.4982 23165.2
 24 10 2015  09 04  -21.5364 18622.1 -13778.8 -36.4982 23165.4
 24 10 2015  09 05  -21.5370 18622.2 -13778.8 -36.4982 23165.5
 24 10 2015  09 06  -21.5378 18622.3 -13778.9 -36.4981 23165.7
 24 10 2015  09 07  -21.5386 18622.3 -13779.0 -36.4983 23165.7
 24 10 2015  09 08  -21.5394 18622.2 -13779.1 -36.4987 23165.7
 24 10 2015  09 09  -21.5402 18622.3 -13779.2 -36.4987 23165.8
 24 10 2015  09 10  -21.5403 18622.3 -13779.3 -36.4989 23165.9
 24 10 2015  09 11  -21.5412 18622.3 -13779.4 -36.4992 23166.0
 24 10 2015  09 12  -21.5422 18622.5 -13779.5 -36.4991 23166.2
 24 10 2015  09 13  -21.5432 18622.5 -13779.6 -36.4992 23166.2
 24 10 2015  09 14  -21.5442 18622.6 -13779.7 -36.4992 23166.4
 24 10 2015  09 15  -21.5454 18622.7 -13779.7 -36.4992 23166.4
 24 10 2015  09 16  -21.5467 18622.7 -13779.8 -36.4994 23166.5
 24 10 2015  09 17  -21.5479 18622.8 -13779.9 -36.4993 23166.7
 24 10 2015  09 18  -21.5491 18623.0 -13779.9 -36.4992 23166.8
 24 10 2015  09 19  -21.5502 18622.9 -13780.0 -36.4995 23166.8
 24 10 2015  09 20  -21.5513 18622.8 -13780.0 -36.4997 23166.8
 24 10 2015  09 21  -21.5527 18622.8 -13780.1 -36.4998 23166.8
 24 10 2015  09 22  -21.5542 18622.9 -13780.2 -36.4998 23166.9
 24 10 2015  09 23  -21.5559 18622.8 -13780.2 -36.5000 23166.8
 24 10 2015  09 24  -21.5576 18622.8 -13780.2 -36.5000 23166.8
 24 10 2015  09 25  -21.5586 18623.0 -13780.2 -36.4997 23167.0
 24 10 2015  09 26  -21.5597 18623.1 -13780.2 -36.4995 23167.1
 24 10 2015  09 27  -21.5602 18623.2 -13780.3 -36.4996 23167.2
 24 10 2015  09 28  -21.5612 18623.3 -13780.3 -36.4995 23167.2
 24 10 2015  09 29  -21.5624 18623.2 -13780.3 -36.4996 23167.3
 24 10 2015  09 30  -21.5636 18623.5 -13780.3 -36.4993 23167.5
 24 10 2015  09 31  -21.5643 18623.4 -13780.4 -36.4996 23167.4
 24 10 2015  09 32  -21.5657 18623.4 -13780.4 -36.4996 23167.5
 24 10 2015  09 33  -21.5671 18623.6 -13780.5 -36.4994 23167.6
 24 10 2015  09 34  -21.5682 18623.5 -13780.5 -36.4996 23167.6
 24 10 2015  09 35  -21.5701 18623.5 -13780.5 -36.4997 23167.6
 24 10 2015  09 36  -21.5710 18623.7 -13780.6 -36.4994 23167.8
 24 10 2015  09 37  -21.5722 18623.6 -13780.6 -36.4995 23167.7
 24 10 2015  09 38  -21.5733 18623.8 -13780.6 -36.4993 23167.9
 24 10 2015  09 39  -21.5740 18623.8 -13780.6 -36.4994 23167.9
 24 10 2015  09 40  -21.5753 18623.7 -13780.6 -36.4996 23167.8
 24 10 2015  09 41  -21.5767 18624.0 -13780.6 -36.4990 23168.0
 24 10 2015  09 42  -21.5781 18624.0 -13780.6 -36.4990 23168.1
 24 10 2015  09 43  -21.5798 18624.3 -13780.5 -36.4984 23168.2
 24 10 2015  09 44  -21.5815 18624.4 -13780.4 -36.4980 23168.2
 24 10 2015  09 45  -21.5826 18624.4 -13780.3 -36.4978 23168.2
 24 10 2015  09 46  -21.5828 18624.4 -13780.3 -36.4979 23168.2
 24 10 2015  09 47  -21.5836 18624.7 -13780.4 -36.4975 23168.5
 24 10 2015  09 48  -21.5847 18624.5 -13780.3 -36.4977 23168.3
 24 10 2015  09 49  -21.5849 18624.3 -13780.3 -36.4981 23168.1
 24 10 2015  09 50  -21.5846 18624.1 -13780.5 -36.4987 23168.0
 24 10 2015  09 51  -21.5852 18624.4 -13780.4 -36.4982 23168.2
 24 10 2015  09 52  -21.5863 18624.5 -13780.4 -36.4980 23168.4
 24 10 2015  09 53  -21.5869 18624.6 -13780.4 -36.4978 23168.4
 24 10 2015  09 54  -21.5885 18624.7 -13780.3 -36.4976 23168.4
 24 10 2015  09 55  -21.5915 18624.8 -13780.2 -36.4972 23168.5
 24 10 2015  09 56  -21.5948 18624.3 -13780.2 -36.4978 23168.0
 24 10 2015  09 57  -21.5978 18624.5 -13780.1 -36.4972 23168.2
 24 10 2015  09 58  -21.5987 18625.0 -13779.9 -36.4961 23168.5
 24 10 2015  09 59  -21.5994 18625.4 -13779.8 -36.4954 23168.7
 24 10 2015  10 00  -21.5992 18626.1 -13779.6 -36.4940 23169.2
 24 10 2015  10 01  -21.5989 18626.2 -13779.5 -36.4936 23169.2
 24 10 2015  10 02  -21.5996 18626.1 -13779.4 -36.4935 23169.0
 24 10 2015  10 03  -21.6007 18625.6 -13779.4 -36.4942 23168.6
 24 10 2015  10 04  -21.6014 18625.8 -13779.4 -36.4940 23168.8
 24 10 2015  10 05  -21.6019 18626.1 -13779.3 -36.4933 23169.0
 24 10 2015  10 06  -21.6030 18626.3 -13779.2 -36.4928 23169.1
 24 10 2015  10 07  -21.6040 18626.6 -13779.1 -36.4922 23169.3
 24 10 2015  10 08  -21.6048 18626.6 -13779.0 -36.4921 23169.2
 24 10 2015  10 09  -21.6057 18626.7 -13779.0 -36.4920 23169.3
 24 10 2015  10 10  -21.6065 18627.0 -13778.9 -36.4912 23169.4
 24 10 2015  10 11  -21.6074 18627.2 -13778.7 -36.4906 23169.5
 24 10 2015  10 12  -21.6082 18627.5 -13778.7 -36.4900 23169.7
 24 10 2015  10 13  -21.6083 18627.8 -13778.5 -36.4894 23169.9
 24 10 2015  10 14  -21.6085 18628.3 -13778.5 -36.4885 23170.2
 24 10 2015  10 15  -21.6088 18628.9 -13778.3 -36.4871 23170.6
 24 10 2015  10 16  -21.6098 18629.6 -13778.0 -36.4857 23171.0
 24 10 2015  10 17  -21.6116 18630.0 -13777.8 -36.4846 23171.1
 24 10 2015  10 18  -21.6134 18630.1 -13777.6 -36.4841 23171.1
 24 10 2015  10 19  -21.6151 18630.4 -13777.4 -36.4833 23171.3
 24 10 2015  10 20  -21.6173 18630.6 -13777.2 -36.4825 23171.3
 24 10 2015  10 21  -21.6191 18630.8 -13776.9 -36.4816 23171.3
 24 10 2015  10 22  -21.6199 18631.2 -13776.7 -36.4808 23171.5
 24 10 2015  10 23  -21.6205 18631.5 -13776.6 -36.4800 23171.7
 24 10 2015  10 24  -21.6214 18631.7 -13776.4 -36.4794 23171.7
 24 10 2015  10 25  -21.6223 18631.9 -13776.3 -36.4789 23171.8
 24 10 2015  10 26  -21.6228 18632.1 -13776.2 -36.4784 23171.9
 24 10 2015  10 27  -21.6238 18632.1 -13776.1 -36.4782 23171.8
 24 10 2015  10 28  -21.6246 18632.2 -13776.0 -36.4778 23171.9
 24 10 2015  10 29  -21.6253 18632.4 -13775.9 -36.4775 23172.0
 24 10 2015  10 30  -21.6263 18632.3 -13775.9 -36.4775 23171.9
 24 10 2015  10 31  -21.6273 18632.3 -13775.9 -36.4775 23171.9
 24 10 2015  10 32  -21.6283 18632.3 -13775.8 -36.4772 23171.9
 24 10 2015  10 33  -21.6295 18632.5 -13775.7 -36.4769 23172.0
 24 10 2015  10 34  -21.6300 18632.8 -13775.6 -36.4761 23172.2
 24 10 2015  10 35  -21.6303 18633.2 -13775.5 -36.4753 23172.4
 24 10 2015  10 36  -21.6305 18633.6 -13775.4 -36.4746 23172.6
 24 10 2015  10 37  -21.6312 18633.8 -13775.2 -36.4739 23172.7
 24 10 2015  10 38  -21.6319 18633.9 -13775.1 -36.4735 23172.8
 24 10 2015  10 39  -21.6326 18634.1 -13774.9 -36.4729 23172.8
 24 10 2015  10 40  -21.6332 18634.2 -13774.8 -36.4726 23172.8
 24 10 2015  10 41  -21.6329 18634.6 -13774.7 -36.4718 23173.0
 24 10 2015  10 42  -21.6325 18635.0 -13774.5 -36.4708 23173.3
 24 10 2015  10 43  -21.6331 18635.1 -13774.4 -36.4702 23173.3
 24 10 2015  10 44  -21.6346 18635.1 -13774.2 -36.4699 23173.2
 24 10 2015  10 45  -21.6363 18635.0 -13774.0 -36.4698 23173.0
 24 10 2015  10 46  -21.6377 18634.8 -13773.8 -36.4697 23172.7
 24 10 2015  10 47  -21.6387 18634.9 -13773.7 -36.4693 23172.7
 24 10 2015  10 48  -21.6395 18634.9 -13773.5 -36.4690 23172.6
 24 10 2015  10 49  -21.6399 18634.9 -13773.3 -36.4686 23172.5
 24 10 2015  10 50  -21.6403 18634.8 -13773.2 -36.4684 23172.4
 24 10 2015  10 51  -21.6410 18634.9 -13773.0 -36.4679 23172.3
 24 10 2015  10 52  -21.6414 18635.2 -13772.8 -36.4670 23172.4
 24 10 2015  10 53  -21.6418 18635.4 -13772.5 -36.4664 23172.4
 24 10 2015  10 54  -21.6424 18635.5 -13772.3 -36.4656 23172.3
 24 10 2015  10 55  -21.6429 18635.8 -13772.0 -36.4647 23172.4
 24 10 2015  10 56  -21.6429 18636.1 -13771.8 -36.4638 23172.5
 24 10 2015  10 57  -21.6431 18636.3 -13771.5 -36.4629 23172.5
 24 10 2015  10 58  -21.6434 18636.5 -13771.2 -36.4620 23172.5
 24 10 2015  10 59  -21.6437 18636.8 -13770.9 -36.4610 23172.6
 24 10 2015  11 00  -21.6443 18637.1 -13770.6 -36.4598 23172.7
 24 10 2015  11 01  -21.6449 18637.4 -13770.3 -36.4589 23172.7
 24 10 2015  11 02  -21.6456 18637.3 -13770.0 -36.4584 23172.5
 24 10 2015  11 03  -21.6461 18637.3 -13769.8 -36.4580 23172.3
 24 10 2015  11 04  -21.6465 18637.4 -13769.6 -36.4576 23172.3
 24 10 2015  11 05  -21.6469 18637.5 -13769.4 -36.4570 23172.2
 24 10 2015  11 06  -21.6471 18637.6 -13769.2 -36.4564 23172.2
 24 10 2015  11 07  -21.6475 18637.7 -13769.0 -36.4559 23172.1
 24 10 2015  11 08  -21.6479 18637.8 -13768.8 -36.4554 23172.1
 24 10 2015  11 09  -21.6480 18637.9 -13768.6 -36.4548 23172.1
 24 10 2015  11 10  -21.6479 18638.1 -13768.4 -36.4541 23172.2
 24 10 2015  11 11  -21.6480 18638.2 -13768.3 -36.4536 23172.2
 24 10 2015  11 12  -21.6483 18638.5 -13768.0 -36.4527 23172.2
 24 10 2015  11 13  -21.6486 18638.7 -13767.9 -36.4521 23172.3
 24 10 2015  11 14  -21.6490 18639.1 -13767.6 -36.4510 23172.4
 24 10 2015  11 15  -21.6493 18639.4 -13767.4 -36.4500 23172.6
 24 10 2015  11 16  -21.6495 18639.6 -13767.1 -36.4492 23172.6
 24 10 2015  11 17  -21.6500 18639.8 -13766.9 -36.4486 23172.7
 24 10 2015  11 18  -21.6507 18640.1 -13766.7 -36.4478 23172.7
 24 10 2015  11 19  -21.6512 18640.2 -13766.6 -36.4473 23172.7
 24 10 2015  11 20  -21.6519 18640.4 -13766.4 -36.4467 23172.7
 24 10 2015  11 21  -21.6526 18640.4 -13766.2 -36.4463 23172.7
 24 10 2015  11 22  -21.6533 18640.4 -13766.1 -36.4461 23172.6
 24 10 2015  11 23  -21.6538 18640.5 -13765.9 -36.4456 23172.6
 24 10 2015  11 24  -21.6541 18640.6 -13765.8 -36.4453 23172.6
 24 10 2015  11 25  -21.6542 18640.8 -13765.7 -36.4446 23172.7
 24 10 2015  11 26  -21.6543 18641.1 -13765.5 -36.4438 23172.8
 24 10 2015  11 27  -21.6547 18641.3 -13765.3 -36.4433 23172.9
 24 10 2015  11 28  -21.6548 18641.5 -13765.2 -36.4426 23173.0
 24 10 2015  11 29  -21.6547 18641.9 -13765.0 -36.4419 23173.1
 24 10 2015  11 30  -21.6544 18642.3 -13764.8 -36.4408 23173.4
 24 10 2015  11 31  -21.6542 18642.7 -13764.7 -36.4400 23173.6
 24 10 2015  11 32  -21.6536 18643.0 -13764.5 -36.4391 23173.8
 24 10 2015  11 33  -21.6531 18643.4 -13764.3 -36.4381 23174.0
 24 10 2015  11 34  -21.6530 18643.7 -13764.1 -36.4374 23174.1
 24 10 2015  11 35  -21.6529 18644.1 -13764.0 -36.4365 23174.3
 24 10 2015  11 36  -21.6530 18644.1 -13763.8 -36.4360 23174.2
 24 10 2015  11 37  -21.6529 18644.3 -13763.7 -36.4356 23174.3
 24 10 2015  11 38  -21.6529 18644.5 -13763.5 -36.4350 23174.3
 24 10 2015  11 39  -21.6527 18644.8 -13763.4 -36.4343 23174.5
 24 10 2015  11 40  -21.6527 18645.1 -13763.2 -36.4335 23174.7
 24 10 2015  11 41  -21.6523 18645.5 -13763.0 -36.4325 23174.9
 24 10 2015  11 42  -21.6524 18645.7 -13762.9 -36.4319 23174.9
 24 10 2015  11 43  -21.6525 18645.9 -13762.7 -36.4313 23175.0
 24 10 2015  11 44  -21.6524 18646.1 -13762.6 -36.4307 23175.1
 24 10 2015  11 45  -21.6524 18646.3 -13762.4 -36.4300 23175.2
 24 10 2015  11 46  -21.6525 18646.6 -13762.2 -36.4294 23175.3
 24 10 2015  11 47  -21.6524 18647.0 -13762.0 -36.4282 23175.5
 24 10 2015  11 48  -21.6525 18647.3 -13761.8 -36.4276 23175.6
 24 10 2015  11 49  -21.6523 18647.5 -13761.7 -36.4269 23175.7
 24 10 2015  11 50  -21.6520 18647.9 -13761.6 -36.4260 23176.0
 24 10 2015  11 51  -21.6517 18648.3 -13761.3 -36.4251 23176.1
 24 10 2015  11 52  -21.6515 18648.7 -13761.1 -36.4241 23176.3
 24 10 2015  11 53  -21.6516 18648.7 -13761.0 -36.4237 23176.3
 24 10 2015  11 54  -21.6513 18648.9 -13760.9 -36.4232 23176.4
 24 10 2015  11 55  -21.6510 18649.2 -13760.7 -36.4225 23176.5
 24 10 2015  11 56  -21.6508 18649.5 -13760.6 -36.4218 23176.7
 24 10 2015  11 57  -21.6504 18649.8 -13760.5 -36.4212 23176.8
 24 10 2015  11 58  -21.6504 18650.0 -13760.4 -36.4206 23176.9
 24 10 2015  11 59  -21.6497 18650.6 -13760.2 -36.4195 23177.3
 24 10 2015  12 00  -21.6490 18651.0 -13760.0 -36.4185 23177.5
 24 10 2015  12 01  -21.6479 18651.5 -13759.8 -36.4173 23177.9
 24 10 2015  12 02  -21.6486 18651.9 -13759.7 -36.4164 23178.0
 24 10 2015  12 03  -21.6507 18652.7 -13759.3 -36.4145 23178.5
 24 10 2015  12 04  -21.6501 18652.9 -13759.1 -36.4139 23178.5
 24 10 2015  12 05  -21.6496 18653.0 -13759.1 -36.4137 23178.5
 24 10 2015  12 06  -21.6496 18652.8 -13759.0 -36.4138 23178.4
 24 10 2015  12 07  -21.6496 18652.7 -13759.0 -36.4138 23178.3
 24 10 2015  12 08  -21.6465 18652.5 -13759.1 -36.4143 23178.2
 24 10 2015  12 09  -21.6456 18652.3 -13759.1 -36.4146 23178.0
 24 10 2015  12 10  -21.6455 18652.6 -13758.9 -36.4139 23178.2
 24 10 2015  12 11  -21.6452 18652.9 -13758.9 -36.4135 23178.4
 24 10 2015  12 12  -21.6447 18653.3 -13758.7 -36.4125 23178.6
 24 10 2015  12 13  -21.6440 18653.7 -13758.6 -36.4117 23178.8
 24 10 2015  12 14  -21.6435 18654.0 -13758.5 -36.4109 23179.1
 24 10 2015  12 15  -21.6428 18654.4 -13758.3 -36.4100 23179.3
 24 10 2015  12 16  -21.6421 18654.9 -13758.1 -36.4090 23179.5
 24 10 2015  12 17  -21.6412 18655.1 -13758.0 -36.4084 23179.7
 24 10 2015  12 18  -21.6405 18655.3 -13757.9 -36.4079 23179.8
 24 10 2015  12 19  -21.6401 18655.5 -13757.8 -36.4075 23179.8
 24 10 2015  12 20  -21.6394 18655.7 -13757.7 -36.4069 23180.0
 24 10 2015  12 21  -21.6389 18655.8 -13757.7 -36.4068 23180.0
 24 10 2015  12 22  -21.6383 18656.0 -13757.5 -36.4062 23180.1
 24 10 2015  12 23  -21.6381 18656.1 -13757.4 -36.4058 23180.1
 24 10 2015  12 24  -21.6379 18656.2 -13757.3 -36.4054 23180.1
 24 10 2015  12 25  -21.6373 18656.6 -13757.2 -36.4046 23180.4
 24 10 2015  12 26  -21.6364 18656.9 -13757.1 -36.4040 23180.5
 24 10 2015  12 27  -21.6359 18657.1 -13757.0 -36.4034 23180.6
 24 10 2015  12 28  -21.6346 18657.7 -13756.9 -36.4023 23181.1
 24 10 2015  12 29  -21.6337 18658.2 -13756.7 -36.4014 23181.3
 24 10 2015  12 30  -21.6329 18658.5 -13756.6 -36.4007 23181.6
 24 10 2015  12 31  -21.6323 18658.7 -13756.5 -36.4002 23181.7
 24 10 2015  12 32  -21.6322 18658.8 -13756.5 -36.3999 23181.7
 24 10 2015  12 33  -21.6321 18659.0 -13756.4 -36.3997 23181.8
 24 10 2015  12 34  -21.6319 18659.0 -13756.4 -36.3995 23181.9
 24 10 2015  12 35  -21.6315 18659.3 -13756.4 -36.3991 23182.0
 24 10 2015  12 36  -21.6309 18659.4 -13756.3 -36.3987 23182.1
 24 10 2015  12 37  -21.6308 18659.5 -13756.2 -36.3985 23182.1
 24 10 2015  12 38  -21.6311 18659.6 -13756.2 -36.3982 23182.1
 24 10 2015  12 39  -21.6313 18659.5 -13756.1 -36.3982 23182.1
 24 10 2015  12 40  -21.6311 18659.5 -13756.1 -36.3981 23182.0
 24 10 2015  12 41  -21.6307 18659.7 -13756.0 -36.3977 23182.2
 24 10 2015  12 42  -21.6303 18660.0 -13756.0 -36.3972 23182.3
 24 10 2015  12 43  -21.6295 18660.3 -13755.9 -36.3967 23182.5
 24 10 2015  12 44  -21.6280 18660.7 -13755.9 -36.3960 23182.9
 24 10 2015  12 45  -21.6261 18661.3 -13755.8 -36.3950 23183.3
 24 10 2015  12 46  -21.6251 18661.6 -13755.7 -36.3944 23183.5
 24 10 2015  12 47  -21.6239 18662.0 -13755.7 -36.3937 23183.8
 24 10 2015  12 48  -21.6229 18662.4 -13755.6 -36.3931 23184.1
 24 10 2015  12 49  -21.6218 18662.6 -13755.6 -36.3927 23184.2
 24 10 2015  12 50  -21.6208 18662.7 -13755.6 -36.3925 23184.3
 24 10 2015  12 51  -21.6200 18662.8 -13755.6 -36.3924 23184.4
 24 10 2015  12 52  -21.6200 18662.5 -13755.7 -36.3930 23184.2
 24 10 2015  12 53  -21.6198 18662.4 -13755.8 -36.3933 23184.2
 24 10 2015  12 54  -21.6193 18662.1 -13755.8 -36.3938 23184.0
 24 10 2015  12 55  -21.6195 18661.9 -13755.9 -36.3944 23183.8
 24 10 2015  12 56  -21.6186 18661.7 -13756.0 -36.3948 23183.7
 24 10 2015  12 57  -21.6184 18661.6 -13756.0 -36.3949 23183.7
 24 10 2015  12 58  -21.6180 18661.7 -13756.1 -36.3949 23183.7
 24 10 2015  12 59  -21.6176 18661.6 -13756.1 -36.3950 23183.7
 24 10 2015  13 00  -21.6167 18661.9 -13756.1 -36.3945 23184.0
 24 10 2015  13 01  -21.6158 18662.3 -13756.0 -36.3940 23184.2
 24 10 2015  13 02  -21.6146 18662.7 -13756.0 -36.3933 23184.5
 24 10 2015  13 03  -21.6130 18663.4 -13755.9 -36.3922 23185.1
 24 10 2015  13 04  -21.6111 18664.2 -13755.8 -36.3908 23185.6
 24 10 2015  13 05  -21.6088 18665.0 -13755.8 -36.3895 23186.3
 24 10 2015  13 06  -21.6064 18665.7 -13755.7 -36.3883 23186.8
 24 10 2015  13 07  -21.6048 18665.9 -13755.7 -36.3880 23186.9
 24 10 2015  13 08  -21.6040 18666.2 -13755.7 -36.3876 23187.2
 24 10 2015  13 09  -21.6026 18666.7 -13755.6 -36.3867 23187.6
 24 10 2015  13 10  -21.6015 18667.2 -13755.6 -36.3859 23187.9
 24 10 2015  13 11  -21.6000 18667.8 -13755.5 -36.3849 23188.4
 24 10 2015  13 12  -21.5992 18668.0 -13755.4 -36.3844 23188.5
 24 10 2015  13 13  -21.5974 18668.4 -13755.5 -36.3839 23188.8
 24 10 2015  13 14  -21.5967 18668.5 -13755.4 -36.3836 23188.9
 24 10 2015  13 15  -21.5978 18667.9 -13755.4 -36.3846 23188.4
 24 10 2015  13 16  -21.5985 18667.4 -13755.4 -36.3854 23188.0
 24 10 2015  13 17  -21.5990 18666.9 -13755.5 -36.3860 23187.7
 24 10 2015  13 18  -21.5992 18666.9 -13755.5 -36.3862 23187.6
 24 10 2015  13 19  -21.5985 18667.0 -13755.5 -36.3860 23187.7
 24 10 2015  13 20  -21.5983 18666.9 -13755.4 -36.3859 23187.6
 24 10 2015  13 21  -21.5980 18666.9 -13755.4 -36.3859 23187.6
 24 10 2015  13 22  -21.5980 18666.6 -13755.4 -36.3864 23187.4
 24 10 2015  13 23  -21.5980 18666.4 -13755.4 -36.3868 23187.2
 24 10 2015  13 24  -21.5982 18666.1 -13755.4 -36.3871 23187.0
 24 10 2015  13 25  -21.5979 18665.9 -13755.4 -36.3874 23186.8
 24 10 2015  13 26  -21.5972 18665.8 -13755.5 -36.3876 23186.8
 24 10 2015  13 27  -21.5971 18665.6 -13755.5 -36.3881 23186.6
 24 10 2015  13 28  -21.5971 18665.3 -13755.5 -36.3885 23186.4
 24 10 2015  13 29  -21.5972 18665.1 -13755.5 -36.3888 23186.2
 24 10 2015  13 30  -21.5966 18665.1 -13755.6 -36.3890 23186.2
 24 10 2015  13 31  -21.5962 18665.1 -13755.7 -36.3892 23186.3
 24 10 2015  13 32  -21.5953 18665.2 -13755.7 -36.3891 23186.4
 24 10 2015  13 33  -21.5948 18665.2 -13755.8 -36.3892 23186.4
 24 10 2015  13 34  -21.5936 18665.4 -13755.8 -36.3889 23186.6
 24 10 2015  13 35  -21.5919 18665.7 -13755.8 -36.3885 23186.8
 24 10 2015  13 36  -21.5907 18665.9 -13755.9 -36.3884 23187.1
 24 10 2015  13 37  -21.5892 18666.0 -13756.0 -36.3884 23187.2
 24 10 2015  13 38  -21.5880 18666.3 -13756.0 -36.3879 23187.5
 24 10 2015  13 39  -21.5867 18666.3 -13756.0 -36.3880 23187.5
 24 10 2015  13 40  -21.5851 18666.5 -13756.1 -36.3880 23187.7
 24 10 2015  13 41  -21.5837 18666.8 -13756.2 -36.3876 23188.0
 24 10 2015  13 42  -21.5820 18667.2 -13756.2 -36.3870 23188.3
 24 10 2015  13 43  -21.5816 18667.3 -13756.2 -36.3870 23188.3
 24 10 2015  13 44  -21.5806 18667.5 -13756.2 -36.3867 23188.5
 24 10 2015  13 45  -21.5798 18667.3 -13756.3 -36.3871 23188.4
 24 10 2015  13 46  -21.5793 18667.2 -13756.3 -36.3873 23188.4
 24 10 2015  13 47  -21.5788 18667.1 -13756.3 -36.3875 23188.3
 24 10 2015  13 48  -21.5787 18666.8 -13756.4 -36.3880 23188.1
 24 10 2015  13 49  -21.5776 18667.1 -13756.4 -36.3876 23188.3
 24 10 2015  13 50  -21.5751 18667.7 -13756.3 -36.3867 23188.8
 24 10 2015  13 51  -21.5725 18668.3 -13756.4 -36.3859 23189.3
 24 10 2015  13 52  -21.5710 18668.2 -13756.5 -36.3861 23189.3
 24 10 2015  13 53  -21.5694 18668.3 -13756.4 -36.3860 23189.3
 24 10 2015  13 54  -21.5694 18667.6 -13756.5 -36.3871 23188.8
 24 10 2015  13 55  -21.5699 18666.8 -13756.6 -36.3885 23188.2
 24 10 2015  13 56  -21.5686 18666.6 -13756.8 -36.3891 23188.2
 24 10 2015  13 57  -21.5674 18666.3 -13756.9 -36.3897 23188.0
 24 10 2015  13 58  -21.5675 18665.9 -13756.9 -36.3903 23187.7
 24 10 2015  13 59  -21.5662 18666.2 -13757.0 -36.3902 23188.0
 24 10 2015  14 00  -21.5646 18666.5 -13756.9 -36.3896 23188.1
 24 10 2015  14 01  -21.5635 18666.4 -13756.9 -36.3897 23188.0
 24 10 2015  14 02  -21.5622 18666.6 -13756.9 -36.3895 23188.2
 24 10 2015  14 03  -21.5613 18666.5 -13756.9 -36.3895 23188.2
 24 10 2015  14 04  -21.5607 18666.2 -13757.0 -36.3903 23188.0
 24 10 2015  14 05  -21.5613 18665.8 -13757.0 -36.3908 23187.7
 24 10 2015  14 06  -21.5612 18665.3 -13757.1 -36.3916 23187.4
 24 10 2015  14 07  -21.5613 18665.3 -13757.1 -36.3917 23187.3
 24 10 2015  14 08  -21.5621 18664.9 -13757.1 -36.3922 23187.0
 24 10 2015  14 09  -21.5619 18665.1 -13757.0 -36.3918 23187.1
 24 10 2015  14 10  -21.5609 18665.4 -13757.0 -36.3912 23187.3
 24 10 2015  14 11  -21.5589 18666.0 -13756.9 -36.3904 23187.8
 24 10 2015  14 12  -21.5570 18666.9 -13756.9 -36.3890 23188.4
 24 10 2015  14 13  -21.5550 18667.7 -13756.8 -36.3876 23189.1
 24 10 2015  14 14  -21.5519 18668.6 -13756.8 -36.3863 23189.8
 24 10 2015  14 15  -21.5487 18669.0 -13756.9 -36.3857 23190.2
 24 10 2015  14 16  -21.5478 18668.4 -13757.0 -36.3870 23189.8
 24 10 2015  14 17  -21.5464 18669.2 -13757.1 -36.3860 23190.5
 24 10 2015  14 18  -21.5443 18669.2 -13757.2 -36.3861 23190.6
 24 10 2015  14 19  -21.5422 18669.3 -13757.3 -36.3863 23190.7
 24 10 2015  14 20  -21.5415 18668.5 -13757.6 -36.3879 23190.2
 24 10 2015  14 21  -21.5410 18667.8 -13757.7 -36.3892 23189.7
 24 10 2015  14 22  -21.5380 18668.2 -13757.9 -36.3890 23190.1
 24 10 2015  14 23  -21.5341 18669.2 -13758.1 -36.3880 23191.1
 24 10 2015  14 24  -21.5341 18668.4 -13758.2 -36.3895 23190.4
 24 10 2015  14 25  -21.5346 18667.9 -13758.4 -36.3905 23190.2
 24 10 2015  14 26  -21.5368 18666.9 -13758.5 -36.3921 23189.4
 24 10 2015  14 27  -21.5385 18666.0 -13758.5 -36.3934 23188.7
 24 10 2015  14 28  -21.5392 18665.5 -13758.6 -36.3943 23188.4
 24 10 2015  14 29  -21.5382 18665.3 -13758.6 -36.3947 23188.2
 24 10 2015  14 30  -21.5378 18665.3 -13758.6 -36.3947 23188.2
 24 10 2015  14 31  -21.5357 18666.2 -13758.7 -36.3935 23189.0
 24 10 2015  14 32  -21.5324 18667.1 -13758.7 -36.3922 23189.8
 24 10 2015  14 33  -21.5298 18667.5 -13758.8 -36.3917 23190.1
 24 10 2015  14 34  -21.5286 18667.7 -13758.9 -36.3917 23190.3
 24 10 2015  14 35  -21.5282 18667.7 -13759.0 -36.3919 23190.3
 24 10 2015  14 36  -21.5270 18667.6 -13759.1 -36.3923 23190.4
 24 10 2015  14 37  -21.5261 18667.4 -13759.3 -36.3929 23190.3
 24 10 2015  14 38  -21.5232 18667.2 -13759.5 -36.3936 23190.3
 24 10 2015  14 39  -21.5218 18666.8 -13759.7 -36.3945 23190.1
 24 10 2015  14 40  -21.5190 18667.0 -13759.8 -36.3945 23190.3
 24 10 2015  14 41  -21.5167 18667.3 -13759.9 -36.3943 23190.5
 24 10 2015  14 42  -21.5150 18668.0 -13760.0 -36.3935 23191.2
 24 10 2015  14 43  -21.5137 18668.0 -13760.1 -36.3938 23191.3
 24 10 2015  14 44  -21.5137 18667.7 -13760.3 -36.3945 23191.1
 24 10 2015  14 45  -21.5142 18667.1 -13760.4 -36.3957 23190.7
 24 10 2015  14 46  -21.5125 18667.5 -13760.5 -36.3952 23191.1
 24 10 2015  14 47  -21.5103 18668.0 -13760.5 -36.3945 23191.5
 24 10 2015  14 48  -21.5094 18668.3 -13760.5 -36.3941 23191.8
 24 10 2015  14 49  -21.5100 18668.0 -13760.7 -36.3948 23191.6
 24 10 2015  14 50  -21.5109 18667.7 -13760.8 -36.3955 23191.5
 24 10 2015  14 51  -21.5114 18667.8 -13760.9 -36.3956 23191.6
 24 10 2015  14 52  -21.5109 18668.2 -13761.0 -36.3952 23192.0
 24 10 2015  14 53  -21.5104 18668.6 -13761.1 -36.3949 23192.3
 24 10 2015  14 54  -21.5091 18668.8 -13761.2 -36.3947 23192.6
 24 10 2015  14 55  -21.5084 18668.4 -13761.4 -36.3955 23192.3
 24 10 2015  14 56  -21.5109 18666.9 -13761.5 -36.3980 23191.2
 24 10 2015  14 57  -21.5117 18666.8 -13761.7 -36.3985 23191.2
 24 10 2015  14 58  -21.5101 18666.6 -13761.7 -36.3989 23191.1
 24 10 2015  14 59  -21.5078 18666.9 -13761.7 -36.3985 23191.4
 24 10 2015  15 00  -21.5070 18666.3 -13761.7 -36.3994 23190.9
 24 10 2015  15 01  -21.5064 18665.7 -13761.9 -36.4005 23190.5
 24 10 2015  15 02  -21.5072 18665.2 -13762.1 -36.4016 23190.2
 24 10 2015  15 03  -21.5065 18665.2 -13762.2 -36.4021 23190.2
 24 10 2015  15 04  -21.5053 18665.2 -13762.4 -36.4023 23190.3
 24 10 2015  15 05  -21.5050 18664.8 -13762.5 -36.4032 23190.1
 24 10 2015  15 06  -21.5056 18664.0 -13762.6 -36.4045 23189.6
 24 10 2015  15 07  -21.5054 18663.5 -13762.9 -36.4057 23189.3
 24 10 2015  15 08  -21.5062 18663.4 -13763.0 -36.4061 23189.3
 24 10 2015  15 09  -21.5059 18663.3 -13763.1 -36.4064 23189.3
 24 10 2015  15 10  -21.5053 18663.0 -13763.2 -36.4072 23189.1
 24 10 2015  15 11  -21.5054 18662.7 -13763.4 -36.4081 23189.0
 24 10 2015  15 12  -21.5053 18662.4 -13763.6 -36.4088 23188.8
 24 10 2015  15 13  -21.5048 18662.2 -13763.7 -36.4093 23188.7
 24 10 2015  15 14  -21.5043 18661.9 -13763.8 -36.4101 23188.5
 24 10 2015  15 15  -21.5040 18661.3 -13764.0 -36.4112 23188.2
 24 10 2015  15 16  -21.5027 18661.3 -13764.2 -36.4115 23188.3
 24 10 2015  15 17  -21.5022 18661.2 -13764.3 -36.4120 23188.3
 24 10 2015  15 18  -21.5010 18660.9 -13764.4 -36.4127 23188.1
 24 10 2015  15 19  -21.4999 18660.6 -13764.7 -36.4136 23188.0
 24 10 2015  15 20  -21.5011 18660.3 -13764.8 -36.4143 23187.9
 24 10 2015  15 21  -21.5004 18660.5 -13764.9 -36.4141 23188.1
 24 10 2015  15 22  -21.5019 18660.3 -13764.9 -36.4145 23187.9
 24 10 2015  15 23  -21.5032 18660.5 -13764.8 -36.4141 23188.0
 24 10 2015  15 24  -21.5026 18660.9 -13764.8 -36.4134 23188.4
 24 10 2015  15 25  -21.5020 18661.3 -13764.8 -36.4128 23188.6
 24 10 2015  15 26  -21.5001 18661.8 -13764.8 -36.4121 23189.0
 24 10 2015  15 27  -21.4961 18663.0 -13764.8 -36.4104 23190.0
 24 10 2015  15 28  -21.4934 18663.8 -13764.8 -36.4091 23190.6
 24 10 2015  15 29  -21.4892 18664.8 -13764.8 -36.4078 23191.5
 24 10 2015  15 30  -21.4851 18665.8 -13765.0 -36.4067 23192.3
 24 10 2015  15 31  -21.4807 18666.6 -13765.1 -36.4058 23193.1
 24 10 2015  15 32  -21.4766 18666.9 -13765.4 -36.4057 23193.5
 24 10 2015  15 33  -21.4743 18666.8 -13765.6 -36.4064 23193.6
 24 10 2015  15 34  -21.4745 18666.0 -13765.9 -36.4081 23193.1
 24 10 2015  15 35  -21.4752 18665.4 -13766.1 -36.4094 23192.8
 24 10 2015  15 36  -21.4768 18664.8 -13766.3 -36.4107 23192.3
 24 10 2015  15 37  -21.4788 18663.8 -13766.4 -36.4124 23191.6
 24 10 2015  15 38  -21.4806 18662.9 -13766.6 -36.4140 23191.0
 24 10 2015  15 39  -21.4819 18661.9 -13766.7 -36.4157 23190.3
 24 10 2015  15 40  -21.4830 18661.1 -13766.8 -36.4171 23189.7
 24 10 2015  15 41  -21.4846 18660.5 -13766.9 -36.4181 23189.3
 24 10 2015  15 42  -21.4860 18660.2 -13766.8 -36.4185 23189.0
 24 10 2015  15 43  -21.4873 18659.8 -13766.8 -36.4191 23188.6
 24 10 2015  15 44  -21.4882 18659.4 -13766.8 -36.4196 23188.3
 24 10 2015  15 45  -21.4882 18659.4 -13766.8 -36.4196 23188.3
 24 10 2015  15 46  -21.4873 18659.5 -13766.7 -36.4192 23188.3
 24 10 2015  15 47  -21.4854 18660.0 -13766.6 -36.4184 23188.7
 24 10 2015  15 48  -21.4843 18659.7 -13766.6 -36.4188 23188.5
 24 10 2015  15 49  -21.4871 18658.6 -13766.7 -36.4206 23187.6
 24 10 2015  15 50  -21.4883 18658.1 -13766.8 -36.4214 23187.3
 24 10 2015  15 51  -21.4887 18657.8 -13766.8 -36.4220 23187.0
 24 10 2015  15 52  -21.4882 18657.6 -13766.8 -36.4223 23186.9
 24 10 2015  15 53  -21.4874 18657.7 -13766.8 -36.4222 23187.0
 24 10 2015  15 54  -21.4874 18657.5 -13766.8 -36.4225 23186.8
 24 10 2015  15 55  -21.4874 18657.5 -13766.8 -36.4224 23186.8
 24 10 2015  15 56  -21.4865 18657.7 -13766.9 -36.4223 23187.0
 24 10 2015  15 57  -21.4847 18658.2 -13766.8 -36.4214 23187.4
 24 10 2015  15 58  -21.4834 18658.3 -13766.8 -36.4213 23187.4
 24 10 2015  15 59  -21.4835 18658.1 -13766.9 -36.4217 23187.3
 24 10 2015  16 00  -21.4833 18657.9 -13766.9 -36.4220 23187.2
 24 10 2015  16 01  -21.4831 18657.9 -13766.9 -36.4221 23187.2
 24 10 2015  16 02  -21.4827 18657.8 -13767.0 -36.4225 23187.1
 24 10 2015  16 03  -21.4819 18657.9 -13767.2 -36.4226 23187.3
 24 10 2015  16 04  -21.4812 18657.8 -13767.3 -36.4230 23187.3
 24 10 2015  16 05  -21.4805 18657.8 -13767.5 -36.4234 23187.5
 24 10 2015  16 06  -21.4804 18657.7 -13767.6 -36.4238 23187.4
 24 10 2015  16 07  -21.4806 18657.3 -13767.8 -36.4247 23187.2
 24 10 2015  16 08  -21.4801 18657.2 -13767.9 -36.4250 23187.2
 24 10 2015  16 09  -21.4797 18657.0 -13768.1 -36.4256 23187.2
 24 10 2015  16 10  -21.4791 18657.0 -13768.2 -36.4259 23187.3
 24 10 2015  16 11  -21.4778 18657.2 -13768.4 -36.4260 23187.4
 24 10 2015  16 12  -21.4770 18657.0 -13768.1 -36.4258 23187.2
 24 10 2015  16 13  -21.4760 18657.1 -13768.0 -36.4255 23187.2
 24 10 2015  16 14  -21.4751 18657.0 -13768.2 -36.4258 23187.2
 24 10 2015  16 15  -21.4740 18656.9 -13768.2 -36.4261 23187.1
 24 10 2015  16 16  -21.4749 18656.7 -13768.8 -36.4276 23187.4
 24 10 2015  16 17  -21.4751 18656.5 -13769.0 -36.4281 23187.3
 24 10 2015  16 18  -21.4756 18656.2 -13769.0 -36.4288 23187.1
 24 10 2015  16 19  -21.4763 18655.8 -13769.2 -36.4295 23186.9
 24 10 2015  16 20  -21.4767 18655.7 -13769.2 -36.4297 23186.8
 24 10 2015  16 21  -21.4764 18655.9 -13769.1 -36.4294 23186.9
 24 10 2015  16 22  -21.4756 18655.9 -13769.0 -36.4292 23186.8
 24 10 2015  16 23  -21.4754 18655.8 -13768.9 -36.4291 23186.6
 24 10 2015  16 24  -21.4754 18655.7 -13768.8 -36.4290 23186.6
 24 10 2015  16 25  -21.4750 18655.8 -13768.7 -36.4288 23186.5
 24 10 2015  16 26  -21.4746 18655.8 -13768.7 -36.4285 23186.6
 24 10 2015  16 27  -21.4739 18655.9 -13768.6 -36.4283 23186.5
 24 10 2015  16 28  -21.4737 18655.8 -13768.6 -36.4284 23186.5
 24 10 2015  16 29  -21.4735 18655.8 -13768.5 -36.4284 23186.4
 24 10 2015  16 30  -21.4732 18655.8 -13768.5 -36.4283 23186.4
 24 10 2015  16 31  -21.4732 18655.6 -13768.5 -36.4285 23186.3
 24 10 2015  16 32  -21.4733 18655.4 -13768.4 -36.4287 23186.0
 24 10 2015  16 33  -21.4731 18655.3 -13768.4 -36.4288 23185.9
 24 10 2015  16 34  -21.4732 18655.0 -13768.4 -36.4292 23185.7
 24 10 2015  16 35  -21.4736 18654.8 -13768.5 -36.4297 23185.6
 24 10 2015  16 36  -21.4737 18654.5 -13768.6 -36.4303 23185.4
 24 10 2015  16 37  -21.4735 18654.4 -13768.7 -36.4307 23185.4
 24 10 2015  16 38  -21.4736 18654.3 -13768.8 -36.4310 23185.4
 24 10 2015  16 39  -21.4735 18654.1 -13768.9 -36.4316 23185.3
 24 10 2015  16 40  -21.4728 18654.1 -13769.0 -36.4319 23185.3
 24 10 2015  16 41  -21.4731 18653.7 -13769.2 -36.4327 23185.1
 24 10 2015  16 42  -21.4742 18653.3 -13769.3 -36.4335 23184.9
 24 10 2015  16 43  -21.4754 18652.9 -13769.4 -36.4344 23184.6
 24 10 2015  16 44  -21.4764 18652.5 -13769.6 -36.4353 23184.4
 24 10 2015  16 45  -21.4773 18652.0 -13769.7 -36.4362 23184.1
 24 10 2015  16 46  -21.4773 18651.5 -13769.9 -36.4373 23183.8
 24 10 2015  16 47  -21.4773 18651.2 -13770.0 -36.4381 23183.6
 24 10 2015  16 48  -21.4771 18650.9 -13770.1 -36.4388 23183.4
 24 10 2015  16 49  -21.4779 18650.6 -13770.2 -36.4393 23183.3
 24 10 2015  16 50  -21.4797 18650.5 -13770.3 -36.4396 23183.2
 24 10 2015  16 51  -21.4819 18650.2 -13770.3 -36.4402 23183.0
 24 10 2015  16 52  -21.4827 18650.2 -13770.4 -36.4402 23183.0
 24 10 2015  16 53  -21.4813 18650.4 -13770.5 -36.4402 23183.2
 24 10 2015  16 54  -21.4792 18650.5 -13770.6 -36.4404 23183.4
 24 10 2015  16 55  -21.4782 18650.3 -13770.8 -36.4409 23183.4
 24 10 2015  16 56  -21.4781 18649.9 -13771.0 -36.4419 23183.2
 24 10 2015  16 57  -21.4784 18649.3 -13771.1 -36.4430 23182.8
 24 10 2015  16 58  -21.4792 18648.8 -13771.3 -36.4441 23182.5
 24 10 2015  16 59  -21.4806 18648.4 -13771.4 -36.4448 23182.2
 24 10 2015  17 00  -21.4810 18648.2 -13771.4 -36.4452 23182.1
 24 10 2015  17 01  -21.4821 18647.5 -13771.4 -36.4463 23181.5
 24 10 2015  17 02  -21.4816 18647.7 -13771.5 -36.4463 23181.7
 24 10 2015  17 03  -21.4834 18646.8 -13771.6 -36.4476 23181.0
 24 10 2015  17 04  -21.4849 18646.4 -13771.7 -36.4483 23180.8
 24 10 2015  17 05  -21.4834 18646.6 -13771.7 -36.4481 23180.9
 24 10 2015  17 06  -21.4843 18646.3 -13771.7 -36.4486 23180.7
 24 10 2015  17 07  -21.4838 18646.3 -13771.8 -36.4487 23180.8
 24 10 2015  17 08  -21.4855 18645.6 -13771.8 -36.4499 23180.2
 24 10 2015  17 09  -21.4859 18645.3 -13771.9 -36.4505 23180.0
 24 10 2015  17 10  -21.4870 18644.8 -13772.0 -36.4515 23179.7
 24 10 2015  17 11  -21.4870 18644.6 -13772.1 -36.4518 23179.6
 24 10 2015  17 12  -21.4876 18644.4 -13772.1 -36.4521 23179.4
 24 10 2015  17 13  -21.4878 18644.1 -13772.2 -36.4528 23179.3
 24 10 2015  17 14  -21.4881 18644.0 -13772.3 -36.4532 23179.1
 24 10 2015  17 15  -21.4881 18644.0 -13772.3 -36.4531 23179.2
 24 10 2015  17 16  -21.4885 18643.8 -13772.3 -36.4534 23179.1
 24 10 2015  17 17  -21.4888 18643.7 -13772.3 -36.4537 23178.9
 24 10 2015  17 18  -21.4890 18643.5 -13772.3 -36.4540 23178.8
 24 10 2015  17 19  -21.4893 18643.2 -13772.4 -36.4544 23178.6
 24 10 2015  17 20  -21.4894 18643.1 -13772.5 -36.4547 23178.6
 24 10 2015  17 21  -21.4894 18643.2 -13772.5 -36.4547 23178.6
 24 10 2015  17 22  -21.4898 18643.3 -13772.5 -36.4547 23178.7
 24 10 2015  17 23  -21.4899 18643.2 -13772.5 -36.4547 23178.7
 24 10 2015  17 24  -21.4904 18643.2 -13772.5 -36.4548 23178.6
 24 10 2015  17 25  -21.4904 18643.1 -13772.5 -36.4550 23178.6
 24 10 2015  17 26  -21.4908 18642.9 -13772.5 -36.4553 23178.4
 24 10 2015  17 27  -21.4912 18642.7 -13772.6 -36.4556 23178.3
 24 10 2015  17 28  -21.4915 18642.5 -13772.6 -36.4560 23178.1
 24 10 2015  17 29  -21.4918 18642.2 -13772.7 -36.4564 23178.0
 24 10 2015  17 30  -21.4926 18642.0 -13772.7 -36.4569 23177.8
 24 10 2015  17 31  -21.4937 18641.7 -13772.8 -36.4575 23177.6
 24 10 2015  17 32  -21.4945 18641.5 -13772.7 -36.4578 23177.4
 24 10 2015  17 33  -21.4949 18641.5 -13772.8 -36.4578 23177.4
 24 10 2015  17 34  -21.4951 18641.2 -13772.8 -36.4582 23177.2
 24 10 2015  17 35  -21.4956 18641.1 -13772.8 -36.4585 23177.1
 24 10 2015  17 36  -21.4960 18640.9 -13772.9 -36.4588 23177.1
 24 10 2015  17 37  -21.4964 18640.8 -13772.9 -36.4592 23177.0
 24 10 2015  17 38  -21.4972 18640.4 -13773.0 -36.4598 23176.7
 24 10 2015  17 39  -21.4973 18640.1 -13773.0 -36.4604 23176.5
 24 10 2015  17 40  -21.4980 18639.8 -13773.1 -36.4609 23176.3
 24 10 2015  17 41  -21.4987 18639.5 -13773.1 -36.4615 23176.0
 24 10 2015  17 42  -21.4990 18639.3 -13773.2 -36.4618 23175.9
 24 10 2015  17 43  -21.4996 18639.1 -13773.2 -36.4621 23175.8
 24 10 2015  17 44  -21.4999 18638.8 -13773.2 -36.4626 23175.6
 24 10 2015  17 45  -21.5009 18638.5 -13773.2 -36.4631 23175.3
 24 10 2015  17 46  -21.5017 18638.2 -13773.3 -36.4637 23175.1
 24 10 2015  17 47  -21.5021 18637.8 -13773.4 -36.4644 23174.8
 24 10 2015  17 48  -21.5034 18637.3 -13773.4 -36.4652 23174.5
 24 10 2015  17 49  -21.5045 18636.8 -13773.4 -36.4659 23174.1
 24 10 2015  17 50  -21.5056 18636.6 -13773.4 -36.4663 23173.9
 24 10 2015  17 51  -21.5063 18636.5 -13773.4 -36.4664 23173.8
 24 10 2015  17 52  -21.5057 18636.6 -13773.4 -36.4663 23173.9
 24 10 2015  17 53  -21.5058 18636.5 -13773.5 -36.4665 23173.9
 24 10 2015  17 54  -21.5058 18636.3 -13773.5 -36.4668 23173.7
 24 10 2015  17 55  -21.5060 18635.9 -13773.5 -36.4674 23173.4
 24 10 2015  17 56  -21.5062 18635.7 -13773.5 -36.4678 23173.2
 24 10 2015  17 57  -21.5066 18635.4 -13773.5 -36.4682 23173.0
 24 10 2015  17 58  -21.5075 18635.2 -13773.5 -36.4685 23172.8
 24 10 2015  17 59  -21.5091 18634.6 -13773.4 -36.4692 23172.3
 24 10 2015  18 00  -21.5085 18634.5 -13773.4 -36.4693 23172.2
 24 10 2015  18 01  -21.5091 18634.2 -13773.3 -36.4696 23171.9
 24 10 2015  18 02  -21.5094 18633.8 -13773.4 -36.4703 23171.6
 24 10 2015  18 03  -21.5093 18633.7 -13773.4 -36.4705 23171.5
 24 10 2015  18 04  -21.5096 18633.5 -13773.3 -36.4707 23171.3
 24 10 2015  18 05  -21.5105 18632.9 -13773.3 -36.4714 23170.9
 24 10 2015  18 06  -21.5113 18632.6 -13773.3 -36.4719 23170.6
 24 10 2015  18 07  -21.5121 18632.1 -13773.3 -36.4725 23170.2
 24 10 2015  18 08  -21.5126 18631.7 -13773.3 -36.4732 23169.9
 24 10 2015  18 09  -21.5135 18631.3 -13773.3 -36.4739 23169.6
 24 10 2015  18 10  -21.5151 18630.8 -13773.3 -36.4745 23169.2
 24 10 2015  18 11  -21.5168 18630.2 -13773.3 -36.4753 23168.7
 24 10 2015  18 12  -21.5175 18629.9 -13773.2 -36.4757 23168.4
 24 10 2015  18 13  -21.5190 18629.9 -13773.2 -36.4756 23168.3
 24 10 2015  18 14  -21.5202 18629.9 -13773.1 -36.4753 23168.3
 24 10 2015  18 15  -21.5211 18630.2 -13773.0 -36.4747 23168.5
 24 10 2015  18 16  -21.5209 18630.2 -13772.9 -36.4746 23168.5
 24 10 2015  18 17  -21.5204 18630.4 -13772.9 -36.4744 23168.6
 24 10 2015  18 18  -21.5203 18630.4 -13772.9 -36.4744 23168.6
 24 10 2015  18 19  -21.5193 18630.7 -13773.0 -36.4742 23168.9
 24 10 2015  18 20  -21.5193 18630.7 -13773.0 -36.4742 23168.9
 24 10 2015  18 21  -21.5197 18630.4 -13773.1 -36.4747 23168.7
 24 10 2015  18 22  -21.5200 18630.4 -13773.0 -36.4746 23168.7
 24 10 2015  18 23  -21.5200 18630.3 -13773.1 -36.4750 23168.6
 24 10 2015  18 24  -21.5202 18629.9 -13773.2 -36.4756 23168.4
 24 10 2015  18 25  -21.5206 18629.7 -13773.1 -36.4758 23168.2
 24 10 2015  18 26  -21.5212 18629.5 -13773.1 -36.4760 23168.0
 24 10 2015  18 27  -21.5215 18629.4 -13773.0 -36.4762 23167.9
 24 10 2015  18 28  -21.5221 18629.1 -13773.1 -36.4766 23167.7
 24 10 2015  18 29  -21.5228 18628.8 -13773.1 -36.4771 23167.4
 24 10 2015  18 30  -21.5233 18628.7 -13773.0 -36.4771 23167.3
 24 10 2015  18 31  -21.5242 18628.5 -13773.0 -36.4773 23167.1
 24 10 2015  18 32  -21.5249 18628.5 -13772.9 -36.4771 23167.1
 24 10 2015  18 33  -21.5261 18628.2 -13772.8 -36.4774 23166.8
 24 10 2015  18 34  -21.5264 18628.0 -13772.8 -36.4775 23166.6
 24 10 2015  18 35  -21.5268 18627.8 -13772.7 -36.4777 23166.4
 24 10 2015  18 36  -21.5274 18627.6 -13772.7 -36.4780 23166.2
 24 10 2015  18 37  -21.5281 18627.3 -13772.6 -36.4783 23166.0
 24 10 2015  18 38  -21.5291 18627.2 -13772.6 -36.4784 23165.9
 24 10 2015  18 39  -21.5294 18627.3 -13772.6 -36.4783 23165.9
 24 10 2015  18 40  -21.5301 18627.1 -13772.5 -36.4783 23165.7
 24 10 2015  18 41  -21.5302 18626.9 -13772.5 -36.4786 23165.5
 24 10 2015  18 42  -21.5302 18626.8 -13772.4 -36.4787 23165.5
 24 10 2015  18 43  -21.5303 18627.1 -13772.4 -36.4782 23165.6
 24 10 2015  18 44  -21.5306 18627.1 -13772.4 -36.4782 23165.6
 24 10 2015  18 45  -21.5308 18627.2 -13772.3 -36.4779 23165.7
 24 10 2015  18 46  -21.5315 18627.2 -13772.2 -36.4777 23165.6
 24 10 2015  18 47  -21.5317 18627.2 -13772.2 -36.4776 23165.6
 24 10 2015  18 48  -21.5315 18627.1 -13772.2 -36.4778 23165.5
 24 10 2015  18 49  -21.5318 18627.0 -13772.2 -36.4779 23165.4
 24 10 2015  18 50  -21.5323 18626.8 -13772.1 -36.4780 23165.3
 24 10 2015  18 51  -21.5326 18626.8 -13772.1 -36.4780 23165.2
 24 10 2015  18 52  -21.5330 18626.9 -13772.1 -36.4778 23165.3
 24 10 2015  18 53  -21.5331 18627.0 -13772.0 -36.4775 23165.3
 24 10 2015  18 54  -21.5332 18627.0 -13771.9 -36.4773 23165.3
 24 10 2015  18 55  -21.5312 18628.7 -13771.8 -36.4746 23166.5
 24 10 2015  18 56  -21.5289 18633.9 -13771.1 -36.4656 23170.4
 24 10 2015  18 57  -21.5221 18641.1 -13769.9 -36.4527 23175.4
 24 10 2015  18 58  -21.5142 18648.0 -13768.7 -36.4401 23180.2
 24 10 2015  18 59  -21.5070 18651.7 -13767.8 -36.4329 23182.7
 24 10 2015  19 00  -21.5058 18651.6 -13767.4 -36.4323 23182.3
 24 10 2015  19 01  -21.5028 18651.0 -13767.5 -36.4334 23182.0
 24 10 2015  19 02  -21.4971 18651.3 -13768.1 -36.4341 23182.5
 24 10 2015  19 03  -21.4937 18651.2 -13768.5 -36.4351 23182.7
 24 10 2015  19 04  -21.4939 18650.6 -13768.8 -36.4365 23182.4
 24 10 2015  19 05  -21.4926 18651.1 -13769.0 -36.4362 23182.9
 24 10 2015  19 06  -21.4921 18651.0 -13769.1 -36.4366 23182.9
 24 10 2015  19 07  -21.4940 18649.7 -13769.2 -36.4386 23181.9
 24 10 2015  19 08  -21.4969 18647.9 -13769.3 -36.4415 23180.5
 24 10 2015  19 09  -21.4995 18646.3 -13769.5 -36.4441 23179.4
 24 10 2015  19 10  -21.5039 18645.0 -13769.5 -36.4460 23178.3
 24 10 2015  19 11  -21.5080 18644.3 -13769.4 -36.4469 23177.7
 24 10 2015  19 12  -21.5078 18644.5 -13769.3 -36.4465 23177.8
 24 10 2015  19 13  -21.5066 18644.4 -13769.1 -36.4463 23177.6
 24 10 2015  19 14  -21.5107 18642.7 -13769.1 -36.4486 23176.2
 24 10 2015  19 15  -21.5145 18641.2 -13769.1 -36.4508 23175.0
 24 10 2015  19 16  -21.5162 18640.3 -13769.1 -36.4523 23174.3
 24 10 2015  19 17  -21.5160 18640.3 -13769.2 -36.4523 23174.4
 24 10 2015  19 18  -21.5164 18640.3 -13769.1 -36.4522 23174.3
 24 10 2015  19 19  -21.5167 18640.8 -13769.0 -36.4513 23174.6
 24 10 2015  19 20  -21.5152 18641.4 -13768.8 -36.4501 23175.0
 24 10 2015  19 21  -21.5172 18640.4 -13768.7 -36.4513 23174.2
 24 10 2015  19 22  -21.5183 18640.4 -13768.6 -36.4511 23174.1
 24 10 2015  19 23  -21.5174 18640.9 -13768.5 -36.4502 23174.5
 24 10 2015  19 24  -21.5191 18640.4 -13768.3 -36.4505 23174.0
 24 10 2015  19 25  -21.5191 18640.4 -13768.2 -36.4502 23173.9
 24 10 2015  19 26  -21.5193 18639.9 -13768.1 -36.4510 23173.4
 24 10 2015  19 27  -21.5200 18639.1 -13768.1 -36.4519 23172.8
 24 10 2015  19 28  -21.5202 18638.7 -13768.1 -36.4527 23172.4
 24 10 2015  19 29  -21.5197 18638.7 -13768.1 -36.4525 23172.5
 24 10 2015  19 30  -21.5195 18639.0 -13768.0 -36.4520 23172.6
 24 10 2015  19 31  -21.5188 18639.0 -13767.9 -36.4516 23172.6
 24 10 2015  19 32  -21.5184 18638.3 -13767.9 -36.4527 23172.0
 24 10 2015  19 33  -21.5184 18637.9 -13767.9 -36.4535 23171.6
 24 10 2015  19 34  -21.5183 18637.8 -13767.9 -36.4536 23171.6
 24 10 2015  19 35  -21.5159 18638.8 -13767.9 -36.4520 23172.4
 24 10 2015  19 36  -21.5125 18640.0 -13767.8 -36.4500 23173.3
 24 10 2015  19 37  -21.5104 18640.4 -13767.6 -36.4492 23173.5
 24 10 2015  19 38  -21.5097 18640.4 -13767.6 -36.4490 23173.5
 24 10 2015  19 39  -21.5090 18640.5 -13767.6 -36.4489 23173.6
 24 10 2015  19 40  -21.5086 18640.8 -13767.6 -36.4485 23173.8
 24 10 2015  19 41  -21.5093 18639.7 -13767.6 -36.4503 23172.9
 24 10 2015  19 42  -21.5111 18638.8 -13767.8 -36.4518 23172.3
 24 10 2015  19 43  -21.5135 18637.5 -13767.9 -36.4540 23171.3
 24 10 2015  19 44  -21.5160 18636.3 -13768.1 -36.4560 23170.5
 24 10 2015  19 45  -21.5159 18636.7 -13768.1 -36.4555 23170.9
 24 10 2015  19 46  -21.5150 18637.6 -13768.0 -36.4540 23171.5
 24 10 2015  19 47  -21.5140 18638.6 -13767.9 -36.4523 23172.2
 24 10 2015  19 48  -21.5139 18639.3 -13767.7 -36.4509 23172.7
 24 10 2015  19 49  -21.5151 18639.2 -13767.5 -36.4507 23172.5
 24 10 2015  19 50  -21.5172 18638.3 -13767.5 -36.4521 23171.7
 24 10 2015  19 51  -21.5192 18637.3 -13767.6 -36.4536 23171.0
 24 10 2015  19 52  -21.5203 18636.9 -13767.7 -36.4545 23170.7
 24 10 2015  19 53  -21.5216 18636.2 -13767.8 -36.4558 23170.3
 24 10 2015  19 54  -21.5220 18636.2 -13767.9 -36.4559 23170.3
 24 10 2015  19 55  -21.5217 18636.5 -13768.0 -36.4558 23170.6
 24 10 2015  19 56  -21.5218 18636.5 -13768.1 -36.4558 23170.6
 24 10 2015  19 57  -21.5224 18636.1 -13768.2 -36.4567 23170.4
 24 10 2015  19 58  -21.5228 18635.7 -13768.4 -36.4577 23170.2
 24 10 2015  19 59  -21.5234 18635.9 -13768.5 -36.4575 23170.4
 24 10 2015  20 00  -21.5246 18635.5 -13768.5 -36.4581 23170.1
 24 10 2015  20 01  -21.5262 18635.1 -13768.6 -36.4588 23169.9
 24 10 2015  20 02  -21.5293 18634.2 -13768.6 -36.4603 23169.1
 24 10 2015  20 03  -21.5270 18635.0 -13768.7 -36.4592 23169.8
 24 10 2015  20 04  -21.5276 18635.3 -13768.6 -36.4586 23170.0
 24 10 2015  20 05  -21.5270 18635.8 -13768.6 -36.4578 23170.4
 24 10 2015  20 06  -21.5259 18636.9 -13768.5 -36.4560 23171.2
 24 10 2015  20 07  -21.5238 18638.8 -13768.2 -36.4528 23172.6
 24 10 2015  20 08  -21.5210 18640.4 -13768.0 -36.4499 23173.7
 24 10 2015  20 09  -21.5180 18641.2 -13767.9 -36.4485 23174.3
 24 10 2015  20 10  -21.5179 18640.1 -13768.0 -36.4503 23173.5
 24 10 2015  20 11  -21.5213 18637.7 -13768.3 -36.4544 23171.8
 24 10 2015  20 12  -21.5233 18636.2 -13768.7 -36.4574 23170.8
 24 10 2015  20 13  -21.5236 18635.5 -13769.0 -36.4590 23170.4
 24 10 2015  20 14  -21.5236 18635.6 -13769.1 -36.4592 23170.5
 24 10 2015  20 15  -21.5233 18635.9 -13769.1 -36.4588 23170.8
 24 10 2015  20 16  -21.5221 18636.6 -13769.1 -36.4576 23171.4
 24 10 2015  20 17  -21.5208 18637.4 -13769.0 -36.4564 23171.9
 24 10 2015  20 18  -21.5208 18637.3 -13768.9 -36.4563 23171.8
 24 10 2015  20 19  -21.5213 18637.0 -13769.0 -36.4569 23171.6
 24 10 2015  20 20  -21.5215 18636.8 -13769.1 -36.4573 23171.5
 24 10 2015  20 21  -21.5210 18636.8 -13769.2 -36.4576 23171.5
 24 10 2015  20 22  -21.5197 18637.5 -13769.3 -36.4567 23172.1
 24 10 2015  20 23  -21.5181 18638.4 -13769.2 -36.4552 23172.9
 24 10 2015  20 24  -21.5169 18639.3 -13769.1 -36.4538 23173.5
 24 10 2015  20 25  -21.5163 18639.8 -13769.1 -36.4529 23173.9
 24 10 2015  20 26  -21.5156 18640.0 -13769.1 -36.4526 23174.0
 24 10 2015  20 27  -21.5156 18639.6 -13769.2 -36.4534 23173.8
 24 10 2015  20 28  -21.5164 18638.5 -13769.3 -36.4553 23173.0
 24 10 2015  20 29  -21.5168 18638.3 -13769.5 -36.4560 23172.9
 24 10 2015  20 30  -21.5173 18637.7 -13769.5 -36.4569 23172.5
 24 10 2015  20 31  -21.5178 18637.3 -13769.7 -36.4578 23172.2
 24 10 2015  20 32  -21.5188 18636.8 -13769.7 -36.4586 23171.9
 24 10 2015  20 33  -21.5194 18636.2 -13769.8 -36.4597 23171.5
 24 10 2015  20 34  -21.5205 18635.8 -13769.9 -36.4604 23171.2
 24 10 2015  20 35  -21.5222 18635.6 -13769.9 -36.4607 23171.0
 24 10 2015  20 36  -21.5226 18636.2 -13769.8 -36.4597 23171.4
 24 10 2015  20 37  -21.5210 18636.8 -13769.7 -36.4586 23171.8
 24 10 2015  20 38  -21.5213 18636.7 -13769.7 -36.4587 23171.7
 24 10 2015  20 39  -21.5234 18636.2 -13769.6 -36.4594 23171.3
 24 10 2015  20 40  -21.5251 18635.6 -13769.7 -36.4602 23170.9
 24 10 2015  20 41  -21.5254 18635.7 -13769.6 -36.4600 23170.9
 24 10 2015  20 42  -21.5254 18635.5 -13769.6 -36.4602 23170.8
 24 10 2015  20 43  -21.5259 18635.3 -13769.6 -36.4607 23170.6
 24 10 2015  20 44  -21.5265 18634.8 -13769.7 -36.4615 23170.2
 24 10 2015  20 45  -21.5268 18634.4 -13769.8 -36.4622 23170.0
 24 10 2015  20 46  -21.5274 18634.0 -13769.8 -36.4628 23169.7
 24 10 2015  20 47  -21.5277 18633.8 -13769.8 -36.4632 23169.5
 24 10 2015  20 48  -21.5276 18633.4 -13769.8 -36.4638 23169.2
 24 10 2015  20 49  -21.5269 18633.3 -13769.8 -36.4640 23169.1
 24 10 2015  20 50  -21.5268 18632.9 -13769.9 -36.4647 23168.8
 24 10 2015  20 51  -21.5265 18632.8 -13769.9 -36.4648 23168.8
 24 10 2015  20 52  -21.5264 18632.6 -13769.9 -36.4651 23168.6
 24 10 2015  20 53  -21.5264 18632.5 -13769.9 -36.4653 23168.5
 24 10 2015  20 54  -21.5269 18632.2 -13769.9 -36.4657 23168.2
 24 10 2015  20 55  -21.5267 18632.1 -13769.9 -36.4659 23168.2
 24 10 2015  20 56  -21.5266 18631.8 -13769.9 -36.4663 23168.0
 24 10 2015  20 57  -21.5273 18631.3 -13769.9 -36.4672 23167.6
 24 10 2015  20 58  -21.5278 18630.9 -13769.9 -36.4677 23167.3
 24 10 2015  20 59  -21.5263 18631.3 -13770.0 -36.4671 23167.6
 24 10 2015  21 00  -21.5250 18632.0 -13769.9 -36.4659 23168.1
 24 10 2015  21 01  -21.5232 18633.1 -13769.7 -36.4641 23168.9
 24 10 2015  21 02  -21.5198 18634.7 -13769.5 -36.4613 23170.0
 24 10 2015  21 03  -21.5185 18635.5 -13769.3 -36.4596 23170.5
 24 10 2015  21 04  -21.5185 18635.7 -13769.1 -36.4588 23170.6
 24 10 2015  21 05  -21.5193 18635.1 -13769.0 -36.4595 23170.1
 24 10 2015  21 06  -21.5211 18634.3 -13769.0 -36.4607 23169.4
 24 10 2015  21 07  -21.5225 18633.9 -13769.0 -36.4614 23169.1
 24 10 2015  21 08  -21.5224 18634.3 -13769.0 -36.4608 23169.4
 24 10 2015  21 09  -21.5212 18635.1 -13768.9 -36.4595 23170.0
 24 10 2015  21 10  -21.5196 18635.9 -13768.7 -36.4580 23170.5
 24 10 2015  21 11  -21.5187 18636.2 -13768.6 -36.4574 23170.7
 24 10 2015  21 12  -21.5183 18636.2 -13768.6 -36.4573 23170.7
 24 10 2015  21 13  -21.5173 18636.2 -13768.6 -36.4572 23170.7
 24 10 2015  21 14  -21.5163 18636.5 -13768.6 -36.4569 23171.0
 24 10 2015  21 15  -21.5160 18636.4 -13768.6 -36.4570 23170.9
 24 10 2015  21 16  -21.5157 18636.3 -13768.7 -36.4572 23170.9
 24 10 2015  21 17  -21.5145 18636.8 -13768.7 -36.4566 23171.2
 24 10 2015  21 18  -21.5134 18637.1 -13768.6 -36.4560 23171.5
 24 10 2015  21 19  -21.5122 18637.4 -13768.7 -36.4556 23171.7
 24 10 2015  21 20  -21.5123 18636.9 -13768.7 -36.4565 23171.3
 24 10 2015  21 21  -21.5127 18636.2 -13768.9 -36.4577 23170.9
 24 10 2015  21 22  -21.5116 18636.6 -13768.9 -36.4574 23171.2
 24 10 2015  21 23  -21.5108 18636.8 -13769.0 -36.4571 23171.4
 24 10 2015  21 24  -21.5107 18636.9 -13769.0 -36.4570 23171.6
 24 10 2015  21 25  -21.5106 18636.9 -13769.1 -36.4572 23171.6
 24 10 2015  21 26  -21.5110 18636.7 -13769.1 -36.4575 23171.4
 24 10 2015  21 27  -21.5105 18636.8 -13769.2 -36.4576 23171.5
 24 10 2015  21 28  -21.5096 18637.2 -13769.1 -36.4568 23171.9
 24 10 2015  21 29  -21.5093 18637.3 -13769.2 -36.4567 23172.0
 24 10 2015  21 30  -21.5096 18637.2 -13769.1 -36.4569 23171.8
 24 10 2015  21 31  -21.5099 18636.9 -13769.2 -36.4573 23171.6
 24 10 2015  21 32  -21.5104 18636.7 -13769.2 -36.4578 23171.5
 24 10 2015  21 33  -21.5107 18636.7 -13769.2 -36.4578 23171.4
 24 10 2015  21 34  -21.5113 18636.4 -13769.2 -36.4581 23171.3
 24 10 2015  21 35  -21.5120 18636.0 -13769.3 -36.4588 23171.0
 24 10 2015  21 36  -21.5122 18635.8 -13769.4 -36.4594 23170.9
 24 10 2015  21 37  -21.5125 18635.6 -13769.4 -36.4596 23170.7
 24 10 2015  21 38  -21.5131 18635.3 -13769.5 -36.4603 23170.5
 24 10 2015  21 39  -21.5135 18635.1 -13769.5 -36.4607 23170.4
 24 10 2015  21 40  -21.5139 18635.0 -13769.6 -36.4610 23170.4
 24 10 2015  21 41  -21.5145 18634.8 -13769.7 -36.4614 23170.3
 24 10 2015  21 42  -21.5156 18634.4 -13769.7 -36.4621 23169.9
 24 10 2015  21 43  -21.5162 18634.2 -13769.8 -36.4625 23169.8
 24 10 2015  21 44  -21.5171 18634.1 -13769.8 -36.4627 23169.7
 24 10 2015  21 45  -21.5179 18634.1 -13769.8 -36.4627 23169.7
 24 10 2015  21 46  -21.5182 18634.3 -13769.8 -36.4623 23169.9
 24 10 2015  21 47  -21.5195 18633.9 -13769.8 -36.4629 23169.6
 24 10 2015  21 48  -21.5205 18633.5 -13769.9 -36.4637 23169.3
 24 10 2015  21 49  -21.5213 18633.3 -13769.9 -36.4641 23169.2
 24 10 2015  21 50  -21.5220 18633.1 -13769.9 -36.4644 23169.0
 24 10 2015  21 51  -21.5225 18633.0 -13770.0 -36.4646 23169.0
 24 10 2015  21 52  -21.5231 18632.8 -13770.0 -36.4651 23168.8
 24 10 2015  21 53  -21.5234 18632.4 -13770.0 -36.4657 23168.5
 24 10 2015  21 54  -21.5235 18631.9 -13770.2 -36.4667 23168.2
 24 10 2015  21 55  -21.5238 18631.3 -13770.3 -36.4677 23167.8
 24 10 2015  21 56  -21.5240 18631.0 -13770.4 -36.4685 23167.6
 24 10 2015  21 57  -21.5234 18630.6 -13770.5 -36.4693 23167.3
 24 10 2015  21 58  -21.5233 18630.2 -13770.6 -36.4700 23167.1
 24 10 2015  21 59  -21.5228 18630.3 -13770.6 -36.4700 23167.2
 24 10 2015  22 00  -21.5221 18630.1 -13770.7 -36.4705 23167.1
 24 10 2015  22 01  -21.5218 18630.0 -13770.8 -36.4708 23167.0
 24 10 2015  22 02  -21.5217 18629.8 -13770.9 -36.4712 23166.9
 24 10 2015  22 03  -21.5223 18629.3 -13770.9 -36.4720 23166.6
 24 10 2015  22 04  -21.5231 18628.9 -13771.0 -36.4728 23166.3
 24 10 2015  22 05  -21.5239 18628.4 -13771.1 -36.4737 23165.9
 24 10 2015  22 06  -21.5246 18628.4 -13771.2 -36.4739 23165.9
 24 10 2015  22 07  -21.5241 18628.3 -13771.1 -36.4739 23165.9
 24 10 2015  22 08  -21.5246 18628.3 -13771.1 -36.4739 23165.8
 24 10 2015  22 09  -21.5247 18628.1 -13771.1 -36.4742 23165.7
 24 10 2015  22 10  -21.5260 18627.7 -13771.2 -36.4749 23165.4
 24 10 2015  22 11  -21.5272 18627.0 -13771.2 -36.4761 23164.9
 24 10 2015  22 12  -21.5288 18627.0 -13771.3 -36.4762 23164.9
 24 10 2015  22 13  -21.5287 18626.8 -13771.3 -36.4765 23164.8
 24 10 2015  22 14  -21.5298 18626.0 -13771.4 -36.4778 23164.2
 24 10 2015  22 15  -21.5294 18626.5 -13771.5 -36.4773 23164.6
 24 10 2015  22 16  -21.5294 18626.2 -13771.5 -36.4777 23164.4
 24 10 2015  22 17  -21.5304 18626.0 -13771.5 -36.4781 23164.2
 24 10 2015  22 18  -21.5299 18626.8 -13771.4 -36.4767 23164.8
 24 10 2015  22 19  -21.5302 18626.5 -13771.4 -36.4771 23164.6
 24 10 2015  22 20  -21.5303 18626.8 -13771.3 -36.4766 23164.8
 24 10 2015  22 21  -21.5309 18625.6 -13771.5 -36.4785 23163.9
 24 10 2015  22 22  -21.5315 18625.8 -13771.5 -36.4785 23164.1
 24 10 2015  22 23  -21.5309 18625.2 -13771.6 -36.4793 23163.7
 24 10 2015  22 24  -21.5321 18624.6 -13771.7 -36.4805 23163.3
 24 10 2015  22 25  -21.5296 18625.5 -13771.8 -36.4793 23164.0
 24 10 2015  22 26  -21.5287 18625.6 -13771.8 -36.4793 23164.1
 24 10 2015  22 27  -21.5278 18626.0 -13771.8 -36.4787 23164.4
 24 10 2015  22 28  -21.5273 18626.2 -13771.8 -36.4784 23164.6
 24 10 2015  22 29  -21.5284 18625.6 -13771.8 -36.4793 23164.1
 24 10 2015  22 30  -21.5309 18624.3 -13772.0 -36.4815 23163.2
 24 10 2015  22 31  -21.5319 18623.8 -13772.1 -36.4824 23162.9
 24 10 2015  22 32  -21.5331 18623.4 -13772.2 -36.4832 23162.6
 24 10 2015  22 33  -21.5352 18622.9 -13772.3 -36.4841 23162.2
 24 10 2015  22 34  -21.5366 18622.1 -13772.3 -36.4854 23161.6
 24 10 2015  22 35  -21.5382 18621.2 -13772.5 -36.4870 23161.0
 24 10 2015  22 36  -21.5390 18621.3 -13772.5 -36.4869 23161.0
 24 10 2015  22 37  -21.5377 18621.9 -13772.5 -36.4860 23161.5
 24 10 2015  22 38  -21.5369 18622.3 -13772.4 -36.4852 23161.8
 24 10 2015  22 39  -21.5375 18622.1 -13772.3 -36.4854 23161.6
 24 10 2015  22 40  -21.5375 18621.7 -13772.3 -36.4859 23161.3
 24 10 2015  22 41  -21.5364 18622.1 -13772.4 -36.4854 23161.6
 24 10 2015  22 42  -21.5351 18622.7 -13772.3 -36.4844 23162.0
 24 10 2015  22 43  -21.5360 18622.1 -13772.2 -36.4852 23161.6
 24 10 2015  22 44  -21.5355 18622.3 -13772.3 -36.4850 23161.7
 24 10 2015  22 45  -21.5353 18622.7 -13772.3 -36.4845 23162.0
 24 10 2015  22 46  -21.5348 18622.7 -13772.3 -36.4844 23162.0
 24 10 2015  22 47  -21.5362 18621.8 -13772.3 -36.4858 23161.4
 24 10 2015  22 48  -21.5372 18620.8 -13772.5 -36.4875 23160.7
 24 10 2015  22 49  -21.5379 18620.3 -13772.6 -36.4887 23160.3
 24 10 2015  22 50  -21.5386 18620.1 -13772.8 -36.4892 23160.3
 24 10 2015  22 51  -21.5385 18620.1 -13772.8 -36.4893 23160.3
 24 10 2015  22 52  -21.5381 18620.4 -13772.8 -36.4888 23160.5
 24 10 2015  22 53  -21.5371 18620.6 -13772.7 -36.4885 23160.6
 24 10 2015  22 54  -21.5373 18620.9 -13772.7 -36.4879 23160.9
 24 10 2015  22 55  -21.5363 18621.5 -13772.6 -36.4870 23161.3
 24 10 2015  22 56  -21.5370 18621.3 -13772.6 -36.4871 23161.2
 24 10 2015  22 57  -21.5367 18621.7 -13772.5 -36.4865 23161.4
 24 10 2015  22 58  -21.5368 18622.0 -13772.5 -36.4858 23161.6
 24 10 2015  22 59  -21.5363 18622.8 -13772.4 -36.4845 23162.2
 24 10 2015  23 00  -21.5356 18623.2 -13772.3 -36.4837 23162.5
 24 10 2015  23 01  -21.5351 18623.5 -13772.3 -36.4832 23162.7
 24 10 2015  23 02  -21.5352 18623.5 -13772.2 -36.4830 23162.7
 24 10 2015  23 03  -21.5354 18623.5 -13772.2 -36.4831 23162.6
 24 10 2015  23 04  -21.5351 18623.6 -13772.2 -36.4828 23162.7
 24 10 2015  23 05  -21.5351 18623.9 -13772.1 -36.4824 23162.9
 24 10 2015  23 06  -21.5354 18624.1 -13772.1 -36.4820 23163.1
 24 10 2015  23 07  -21.5343 18624.8 -13772.1 -36.4809 23163.6
 24 10 2015  23 08  -21.5343 18625.1 -13772.0 -36.4804 23163.8
 24 10 2015  23 09  -21.5337 18625.4 -13771.9 -36.4798 23164.0
 24 10 2015  23 10  -21.5328 18625.5 -13771.9 -36.4796 23164.1
 24 10 2015  23 11  -21.5324 18625.4 -13772.0 -36.4798 23164.1
 24 10 2015  23 12  -21.5316 18625.6 -13772.0 -36.4796 23164.2
 24 10 2015  23 13  -21.5308 18625.5 -13772.0 -36.4798 23164.2
 24 10 2015  23 14  -21.5302 18625.6 -13772.1 -36.4798 23164.2
 24 10 2015  23 15  -21.5295 18625.6 -13772.2 -36.4801 23164.3
 24 10 2015  23 16  -21.5287 18625.7 -13772.2 -36.4799 23164.4
 24 10 2015  23 17  -21.5277 18625.7 -13772.3 -36.4801 23164.5
 24 10 2015  23 18  -21.5272 18625.8 -13772.4 -36.4800 23164.6
 24 10 2015  23 19  -21.5272 18625.8 -13772.5 -36.4803 23164.6
 24 10 2015  23 20  -21.5265 18625.8 -13772.5 -36.4803 23164.7
 24 10 2015  23 21  -21.5256 18626.1 -13772.5 -36.4799 23165.0
 24 10 2015  23 22  -21.5250 18626.1 -13772.6 -36.4800 23165.0
 24 10 2015  23 23  -21.5242 18626.4 -13772.6 -36.4796 23165.2
 24 10 2015  23 24  -21.5241 18626.3 -13772.6 -36.4799 23165.1
 24 10 2015  23 25  -21.5239 18626.3 -13772.7 -36.4800 23165.2
 24 10 2015  23 26  -21.5229 18626.4 -13772.8 -36.4799 23165.3
 24 10 2015  23 27  -21.5232 18626.1 -13772.8 -36.4804 23165.1
 24 10 2015  23 28  -21.5248 18625.1 -13772.9 -36.4822 23164.3
 24 10 2015  23 29  -21.5270 18623.7 -13773.1 -36.4846 23163.4
 24 10 2015  23 30  -21.5284 18622.7 -13773.4 -36.4866 23162.7
 24 10 2015  23 31  -21.5283 18622.6 -13773.6 -36.4871 23162.7
 24 10 2015  23 32  -21.5264 18623.4 -13773.6 -36.4860 23163.4
 24 10 2015  23 33  -21.5254 18624.1 -13773.6 -36.4849 23164.0
 24 10 2015  23 34  -21.5262 18623.9 -13773.6 -36.4853 23163.8
 24 10 2015  23 35  -21.5279 18623.1 -13773.6 -36.4865 23163.2
 24 10 2015  23 36  -21.5288 18622.4 -13773.8 -36.4879 23162.7
 24 10 2015  23 37  -21.5285 18622.4 -13773.9 -36.4881 23162.8
 24 10 2015  23 38  -21.5285 18622.6 -13774.0 -36.4880 23163.0
 24 10 2015  23 39  -21.5286 18622.3 -13774.0 -36.4885 23162.8
 24 10 2015  23 40  -21.5283 18622.3 -13774.1 -36.4886 23162.8
 24 10 2015  23 41  -21.5274 18622.5 -13774.1 -36.4884 23163.0
 24 10 2015  23 42  -21.5272 18622.7 -13774.1 -36.4881 23163.2
 24 10 2015  23 43  -21.5274 18622.8 -13774.1 -36.4878 23163.3
 24 10 2015  23 44  -21.5275 18623.0 -13774.1 -36.4876 23163.4
 24 10 2015  23 45  -21.5275 18622.9 -13774.1 -36.4877 23163.3
 24 10 2015  23 46  -21.5278 18622.4 -13774.1 -36.4886 23162.9
 24 10 2015  23 47  -21.5275 18622.3 -13774.2 -36.4887 23162.9
 24 10 2015  23 48  -21.5269 18622.7 -13774.2 -36.4883 23163.1
 24 10 2015  23 49  -21.5276 18622.3 -13774.2 -36.4888 23162.8
 24 10 2015  23 50  -21.5283 18621.8 -13774.2 -36.4896 23162.5
 24 10 2015  23 51  -21.5284 18621.7 -13774.3 -36.4899 23162.4
 24 10 2015  23 52  -21.5290 18621.5 -13774.4 -36.4904 23162.3
 24 10 2015  23 53  -21.5300 18621.2 -13774.4 -36.4908 23162.1
 24 10 2015  23 54  -21.5304 18621.0 -13774.4 -36.4912 23162.0
 24 10 2015  23 55  -21.5304 18621.0 -13774.5 -36.4913 23162.0
 24 10 2015  23 56  -21.5304 18621.1 -13774.5 -36.4912 23162.1
 24 10 2015  23 57  -21.5311 18621.2 -13774.5 -36.4911 23162.1
 24 10 2015  23 58  -21.5321 18620.8 -13774.5 -36.4916 23161.8
